2theta /stopnie	natê¿enie/jednostki umowne
 10.000      65.000
 10.010      65.000
 10.020      65.000
 10.030      65.000
 10.040      65.000
 10.050      65.000
 10.060      65.000
 10.070      65.000
 10.080      65.000
 10.090      65.000
 10.100      65.000
 10.110      65.000
 10.120      65.000
 10.130      65.000
 10.140      65.000
 10.150      65.000
 10.160      65.000
 10.170      65.000
 10.180      65.000
 10.190      65.000
 10.200      65.000
 10.210      65.000
 10.220      65.000
 10.230      65.000
 10.240      65.000
 10.250      65.000
 10.260      65.000
 10.270      65.000
 10.281      65.000
 10.291      65.000
 10.301      65.000
 10.311      65.000
 10.321      65.000
 10.331      65.000
 10.341      65.000
 10.351      65.000
 10.361      65.000
 10.371      65.000
 10.381      65.000
 10.391      65.000
 10.401      65.000
 10.411      65.000
 10.421      65.000
 10.431      65.000
 10.441      65.000
 10.451      65.000
 10.461      65.000
 10.471      65.000
 10.481      65.000
 10.491      65.000
 10.501      65.000
 10.511      65.000
 10.521      65.000
 10.531      65.000
 10.541      65.000
 10.551      65.000
 10.561      65.000
 10.571      65.000
 10.581      65.000
 10.591      65.000
 10.601      65.000
 10.611      65.000
 10.621      65.000
 10.631      65.000
 10.641      65.000
 10.651      65.000
 10.661      65.000
 10.671      65.000
 10.681      65.000
 10.691      65.000
 10.701      65.000
 10.711      65.000
 10.721      65.000
 10.731      65.000
 10.741      65.000
 10.751      65.000
 10.761      65.000
 10.771      65.000
 10.781      65.000
 10.791      65.000
 10.801      65.000
 10.811      65.000
 10.821      65.000
 10.831      65.000
 10.842      65.000
 10.852      65.000
 10.862      65.000
 10.872      65.000
 10.882      65.000
 10.892      65.000
 10.902      65.000
 10.912      65.000
 10.922      65.000
 10.932      65.000
 10.942      65.000
 10.952      65.000
 10.962      65.000
 10.972      65.000
 10.982      65.000
 10.992      65.000
 11.002      65.000
 11.012      65.000
 11.022      65.000
 11.032      65.000
 11.042      65.000
 11.052      65.000
 11.062      65.000
 11.072      65.000
 11.082      65.000
 11.092      65.000
 11.102      65.000
 11.112      65.000
 11.122      65.000
 11.132      65.000
 11.142      65.000
 11.152      65.000
 11.162      65.000
 11.172      65.000
 11.182      65.000
 11.192      65.000
 11.202      65.000
 11.212      65.000
 11.222      65.000
 11.232      65.000
 11.242      65.000
 11.252      65.000
 11.262      65.000
 11.272      65.000
 11.282      65.000
 11.292      65.000
 11.302      65.000
 11.312      65.000
 11.322      65.000
 11.332      65.000
 11.342      65.000
 11.352      65.000
 11.362      65.000
 11.372      65.000
 11.382      65.000
 11.393      65.000
 11.403      65.000
 11.413      65.000
 11.423      65.000
 11.433      65.000
 11.443      65.000
 11.453      65.000
 11.463      65.000
 11.473      65.000
 11.483      65.000
 11.493      65.000
 11.503      65.000
 11.513      65.000
 11.523      65.000
 11.533      65.000
 11.543      65.000
 11.553      65.000
 11.563      65.000
 11.573      65.000
 11.583      65.000
 11.593      65.000
 11.603      65.000
 11.613      65.000
 11.623      65.000
 11.633      65.000
 11.643      65.000
 11.653      65.000
 11.663      65.000
 11.673      65.000
 11.683      65.000
 11.693      65.000
 11.703      65.000
 11.713      65.000
 11.723      65.000
 11.733      65.000
 11.743      65.000
 11.753      65.000
 11.763      65.000
 11.773      65.000
 11.783      65.000
 11.793      65.000
 11.803      65.000
 11.813      65.000
 11.823      65.000
 11.833      65.000
 11.843      65.000
 11.853      65.000
 11.863      65.000
 11.873      65.000
 11.883      65.000
 11.893      65.000
 11.903      65.000
 11.913      65.000
 11.923      65.000
 11.933      65.000
 11.943      65.000
 11.954      65.000
 11.964      65.000
 11.974      65.000
 11.984      65.000
 11.994      65.000
 12.004      65.000
 12.014      65.000
 12.024      65.000
 12.034      65.000
 12.044      65.000
 12.054      65.000
 12.064      65.000
 12.074      65.000
 12.084      65.000
 12.094      65.000
 12.104      65.000
 12.114      65.000
 12.124      65.000
 12.134      65.000
 12.144      65.000
 12.154      65.000
 12.164      65.000
 12.174      65.000
 12.184      65.000
 12.194      65.000
 12.204      65.000
 12.214      65.000
 12.224      65.000
 12.234      65.000
 12.244      65.000
 12.254      65.000
 12.264      65.000
 12.274      65.000
 12.284      65.000
 12.294      65.000
 12.304      65.000
 12.314      65.000
 12.324      65.000
 12.334      65.000
 12.344      65.000
 12.354      65.000
 12.364      65.000
 12.374      65.000
 12.384      65.000
 12.394      65.000
 12.404      65.000
 12.414      65.000
 12.424      65.000
 12.434      65.000
 12.444      65.000
 12.454      65.000
 12.464      65.000
 12.474      65.000
 12.484      65.000
 12.494      65.000
 12.505      65.000
 12.515      65.000
 12.525      65.000
 12.535      65.000
 12.545      65.000
 12.555      65.000
 12.565      65.000
 12.575      65.000
 12.585      65.000
 12.595      65.000
 12.605      65.000
 12.615      65.000
 12.625      65.000
 12.635      65.000
 12.645      65.000
 12.655      65.000
 12.665      65.000
 12.675      65.000
 12.685      65.000
 12.695      65.000
 12.705      65.000
 12.715      65.000
 12.725      65.000
 12.735      65.000
 12.745      65.000
 12.755      65.000
 12.765      65.000
 12.775      65.000
 12.785      65.000
 12.795      65.000
 12.805      65.000
 12.815      65.000
 12.825      65.000
 12.835      65.000
 12.845      65.000
 12.855      65.000
 12.865      65.000
 12.875      65.000
 12.885      65.000
 12.895      65.000
 12.905      65.000
 12.915      65.000
 12.925      65.000
 12.935      65.000
 12.945      65.000
 12.955      65.000
 12.965      65.000
 12.975      65.000
 12.985      65.000
 12.995      65.000
 13.005      65.000
 13.015      65.000
 13.025      65.000
 13.035      65.000
 13.045      65.000
 13.055      65.000
 13.066      65.000
 13.076      65.000
 13.086      65.000
 13.096      65.000
 13.106      65.000
 13.116      65.000
 13.126      65.000
 13.136      65.000
 13.146      65.000
 13.156      65.000
 13.166      65.000
 13.176      65.000
 13.186      65.000
 13.196      65.000
 13.206      65.000
 13.216      65.000
 13.226      65.000
 13.236      65.000
 13.246      65.000
 13.256      65.000
 13.266      65.000
 13.276      65.000
 13.286      65.000
 13.296      65.000
 13.306      65.000
 13.316      65.000
 13.326      65.000
 13.336      65.000
 13.346      65.000
 13.356      65.000
 13.366      65.000
 13.376      65.000
 13.386      65.000
 13.396      65.000
 13.406      65.000
 13.416      65.000
 13.426      65.000
 13.436      65.000
 13.446      65.000
 13.456      65.000
 13.466      65.000
 13.476      65.000
 13.486      65.000
 13.496      65.000
 13.506      65.000
 13.516      65.000
 13.526      65.000
 13.536      65.000
 13.546      65.000
 13.556      65.000
 13.566      65.000
 13.576      65.000
 13.586      65.000
 13.596      65.000
 13.606      65.000
 13.616      65.000
 13.627      65.000
 13.637      65.000
 13.647      65.000
 13.657      65.000
 13.667      65.000
 13.677      65.000
 13.687      65.000
 13.697      65.000
 13.707      65.000
 13.717      65.000
 13.727      65.000
 13.737      65.000
 13.747      65.000
 13.757      65.000
 13.767      65.000
 13.777      65.000
 13.787      65.000
 13.797      65.000
 13.807      65.000
 13.817      65.000
 13.827      65.000
 13.837      65.000
 13.847      65.000
 13.857      65.000
 13.867      65.000
 13.877      65.000
 13.887      65.000
 13.897      65.000
 13.907      65.000
 13.917      65.000
 13.927      65.000
 13.937      65.000
 13.947      65.000
 13.957      65.000
 13.967      65.000
 13.977      65.000
 13.987      65.000
 13.997      65.000
 14.007      65.000
 14.017      65.000
 14.027      65.000
 14.037      65.000
 14.047      65.000
 14.057      65.000
 14.067      65.000
 14.077      65.000
 14.087      65.000
 14.097      65.000
 14.107      65.000
 14.117      65.000
 14.127      65.000
 14.137      65.000
 14.147      65.000
 14.157      65.000
 14.167      65.000
 14.178      65.000
 14.188      65.000
 14.198      65.000
 14.208      65.000
 14.218      65.000
 14.228      65.000
 14.238      65.000
 14.248      65.000
 14.258      65.000
 14.268      65.000
 14.278      65.000
 14.288      65.000
 14.298      65.000
 14.308      65.000
 14.318      65.000
 14.328      65.000
 14.338      65.000
 14.348      65.000
 14.358      65.000
 14.368      65.000
 14.378      65.000
 14.388      65.000
 14.398      65.000
 14.408      65.000
 14.418      65.000
 14.428      65.000
 14.438      65.000
 14.448      65.000
 14.458      65.000
 14.468      65.000
 14.478      65.000
 14.488      65.000
 14.498      65.000
 14.508      65.000
 14.518      65.000
 14.528      65.000
 14.538      65.000
 14.548      65.000
 14.558      65.000
 14.568      65.000
 14.578      65.000
 14.588      65.000
 14.598      65.000
 14.608      65.000
 14.618      65.000
 14.628      65.000
 14.638      65.000
 14.648      65.000
 14.658      65.000
 14.668      65.000
 14.678      65.000
 14.688      65.000
 14.698      65.000
 14.708      65.000
 14.718      65.000
 14.728      65.000
 14.739      65.000
 14.749      65.000
 14.759      65.000
 14.769      65.000
 14.779      65.000
 14.789      65.000
 14.799      65.000
 14.809      65.000
 14.819      65.000
 14.829      65.000
 14.839      65.000
 14.849      65.000
 14.859      65.000
 14.869      65.000
 14.879      65.000
 14.889      65.000
 14.899      65.000
 14.909      65.000
 14.919      65.000
 14.929      65.000
 14.939      65.000
 14.949      65.000
 14.959      65.000
 14.969      65.000
 14.979      65.000
 14.989      65.000
 14.999      65.000
 15.009      65.000
 15.019      65.000
 15.029      65.000
 15.039      65.000
 15.049      65.000
 15.059      65.000
 15.069      65.000
 15.079      65.000
 15.089      65.000
 15.099      65.000
 15.109      65.000
 15.119      65.000
 15.129      65.000
 15.139      65.000
 15.149      65.000
 15.159      65.000
 15.169      65.000
 15.179      65.000
 15.189      65.000
 15.199      65.000
 15.209      65.000
 15.219      65.000
 15.229      65.000
 15.239      65.000
 15.249      65.000
 15.259      65.000
 15.269      65.000
 15.279      65.000
 15.290      65.000
 15.300      65.000
 15.310      65.000
 15.320      65.000
 15.330      65.000
 15.340      65.000
 15.350      65.000
 15.360      65.000
 15.370      65.000
 15.380      65.000
 15.390      65.000
 15.400      65.000
 15.410      65.000
 15.420      65.000
 15.430      65.000
 15.440      65.000
 15.450      65.000
 15.460      65.000
 15.470      65.000
 15.480      65.000
 15.490      65.000
 15.500      65.000
 15.510      65.000
 15.520      65.000
 15.530      65.000
 15.540      65.000
 15.550      65.000
 15.560      65.000
 15.570      65.000
 15.580      65.000
 15.590      65.000
 15.600      65.000
 15.610      65.000
 15.620      65.000
 15.630      65.000
 15.640      65.000
 15.650      65.000
 15.660      65.000
 15.670      65.000
 15.680      65.000
 15.690      65.000
 15.700      65.000
 15.710      65.000
 15.720      65.000
 15.730      65.000
 15.740      65.000
 15.750      65.000
 15.760      65.000
 15.770      65.000
 15.780      65.000
 15.790      65.000
 15.800      65.000
 15.810      65.000
 15.820      65.000
 15.830      65.000
 15.840      65.000
 15.851      65.000
 15.861      65.000
 15.871      65.000
 15.881      65.000
 15.891      65.000
 15.901      65.000
 15.911      65.000
 15.921      65.000
 15.931      65.000
 15.941      65.000
 15.951      65.000
 15.961      65.000
 15.971      65.000
 15.981      65.000
 15.991      65.000
 16.001      65.000
 16.011      65.000
 16.021      65.000
 16.031      65.000
 16.041      65.000
 16.051      65.000
 16.061      65.000
 16.071      65.000
 16.081      65.000
 16.091      65.000
 16.101      65.000
 16.111      65.000
 16.121      65.000
 16.131      65.000
 16.141      65.000
 16.151      65.000
 16.161      65.000
 16.171      65.000
 16.181      65.000
 16.191      65.000
 16.201      65.000
 16.211      65.000
 16.221      65.000
 16.231      65.000
 16.241      65.000
 16.251      65.000
 16.261      65.000
 16.271      65.000
 16.281      65.000
 16.291      65.000
 16.301      65.000
 16.311      65.000
 16.321      65.000
 16.331      65.000
 16.341      65.000
 16.351      65.000
 16.361      65.000
 16.371      65.000
 16.381      65.000
 16.391      65.000
 16.402      65.000
 16.412      65.000
 16.422      65.000
 16.432      65.000
 16.442      65.000
 16.452      65.000
 16.462      65.000
 16.472      65.000
 16.482      65.000
 16.492      65.000
 16.502      65.000
 16.512      65.000
 16.522      65.000
 16.532      65.000
 16.542      65.000
 16.552      65.000
 16.562      65.000
 16.572      65.000
 16.582      65.000
 16.592      65.000
 16.602      65.000
 16.612      65.000
 16.622      65.000
 16.632      65.000
 16.642      65.000
 16.652      65.000
 16.662      65.000
 16.672      65.000
 16.682      65.000
 16.692      65.000
 16.702      65.000
 16.712      65.000
 16.722      65.000
 16.732      65.000
 16.742      65.000
 16.752      65.000
 16.762      65.000
 16.772      65.000
 16.782      65.000
 16.792      65.000
 16.802      65.000
 16.812      65.000
 16.822      65.000
 16.832      65.000
 16.842      65.000
 16.852      65.000
 16.862      65.000
 16.872      65.000
 16.882      65.000
 16.892      65.000
 16.902      65.000
 16.912      65.000
 16.922      65.000
 16.932      65.000
 16.942      65.000
 16.952      65.000
 16.963      65.000
 16.973      65.000
 16.983      65.000
 16.993      65.000
 17.003      65.000
 17.013      65.000
 17.023      65.000
 17.033      65.000
 17.043      65.000
 17.053      65.000
 17.063      65.000
 17.073      65.000
 17.083      65.000
 17.093      65.000
 17.103      65.000
 17.113      65.000
 17.123      65.000
 17.133      65.000
 17.143      65.000
 17.153      65.000
 17.163      65.000
 17.173      65.000
 17.183      65.000
 17.193      65.000
 17.203      65.000
 17.213      65.000
 17.223      65.000
 17.233      65.000
 17.243      65.000
 17.253      65.000
 17.263      65.000
 17.273      65.000
 17.283      65.000
 17.293      65.000
 17.303      65.000
 17.313      65.000
 17.323      65.000
 17.333      65.000
 17.343      65.000
 17.353      65.000
 17.363      65.000
 17.373      65.000
 17.383      65.000
 17.393      65.000
 17.403      65.000
 17.413      65.000
 17.423      65.000
 17.433      65.000
 17.443      65.000
 17.453      65.000
 17.463      65.000
 17.473      65.000
 17.483      65.000
 17.493      65.000
 17.503      65.000
 17.514      65.000
 17.524      65.000
 17.534      65.000
 17.544      65.000
 17.554      65.000
 17.564      65.000
 17.574      65.000
 17.584      65.000
 17.594      65.000
 17.604      65.000
 17.614      65.000
 17.624      65.000
 17.634      65.000
 17.644      65.000
 17.654      65.000
 17.664      65.000
 17.674      65.000
 17.684      65.000
 17.694      65.000
 17.704      65.000
 17.714      65.000
 17.724      65.000
 17.734      65.000
 17.744      65.000
 17.754      65.000
 17.764      65.000
 17.774      65.000
 17.784      65.000
 17.794      65.000
 17.804      65.000
 17.814      65.000
 17.824      65.000
 17.834      65.000
 17.844      65.000
 17.854      65.000
 17.864      65.000
 17.874      65.000
 17.884      65.000
 17.894      65.000
 17.904      65.000
 17.914      65.000
 17.924      65.000
 17.934      65.000
 17.944      65.000
 17.954      65.000
 17.964      65.000
 17.974      65.000
 17.984      65.000
 17.994      65.000
 18.004      65.000
 18.014      65.000
 18.024      65.000
 18.034      65.000
 18.044      65.000
 18.054      65.000
 18.064      65.000
 18.075      65.000
 18.085      65.000
 18.095      65.000
 18.105      65.000
 18.115      65.000
 18.125      65.000
 18.135      65.000
 18.145      65.000
 18.155      65.000
 18.165      65.000
 18.175      65.000
 18.185      65.000
 18.195      65.000
 18.205      65.000
 18.215      65.000
 18.225      65.000
 18.235      65.000
 18.245      65.000
 18.255      65.000
 18.265      65.000
 18.275      65.000
 18.285      65.000
 18.295      65.000
 18.305      65.000
 18.315      65.000
 18.325      65.000
 18.335      65.000
 18.345      65.000
 18.355      65.000
 18.365      65.000
 18.375      65.000
 18.385      65.000
 18.395      65.000
 18.405      65.000
 18.415      65.000
 18.425      65.000
 18.435      65.000
 18.445      65.000
 18.455      65.000
 18.465      65.000
 18.475      65.000
 18.485      65.000
 18.495      65.000
 18.505      65.000
 18.515      65.000
 18.525      65.000
 18.535      65.000
 18.545      65.000
 18.555      65.000
 18.565      65.000
 18.575      65.000
 18.585      65.000
 18.595      65.000
 18.605      65.000
 18.615      65.000
 18.625      65.000
 18.636      65.000
 18.646      65.000
 18.656      65.000
 18.666      65.000
 18.676      65.000
 18.686      65.000
 18.696      65.000
 18.706      65.000
 18.716      65.000
 18.726      65.000
 18.736      65.000
 18.746      65.000
 18.756      65.000
 18.766      65.000
 18.776      65.000
 18.786      65.000
 18.796      65.000
 18.806      65.000
 18.816      65.000
 18.826      65.000
 18.836      65.000
 18.846      65.000
 18.856      65.000
 18.866      65.000
 18.876      65.000
 18.886      65.000
 18.896      65.000
 18.906      65.000
 18.916      65.000
 18.926      65.000
 18.936      65.000
 18.946      65.000
 18.956      65.000
 18.966      65.000
 18.976      65.000
 18.986      65.000
 18.996      65.000
 19.006      65.000
 19.016      65.000
 19.026      65.000
 19.036      65.000
 19.046      65.000
 19.056      65.000
 19.066      65.000
 19.076      65.000
 19.086      65.000
 19.096      65.000
 19.106      65.000
 19.116      65.000
 19.126      65.000
 19.136      65.000
 19.146      65.000
 19.156      65.000
 19.166      65.000
 19.176      65.000
 19.187      65.000
 19.197      65.000
 19.207      65.000
 19.217      65.000
 19.227      65.000
 19.237      65.000
 19.247      65.000
 19.257      65.000
 19.267      65.000
 19.277      65.000
 19.287      65.000
 19.297      65.000
 19.307      65.000
 19.317      65.000
 19.327      65.000
 19.337      65.000
 19.347      65.000
 19.357      65.000
 19.367      65.000
 19.377      65.000
 19.387      65.000
 19.397      65.000
 19.407      65.000
 19.417      65.000
 19.427      65.000
 19.437      65.000
 19.447      65.000
 19.457      65.000
 19.467      65.000
 19.477      65.000
 19.487      65.000
 19.497      65.000
 19.507      65.000
 19.517      65.000
 19.527      65.000
 19.537      65.000
 19.547      65.000
 19.557      65.000
 19.567      65.000
 19.577      65.000
 19.587      65.000
 19.597      65.000
 19.607      65.000
 19.617      65.000
 19.627      65.000
 19.637      65.000
 19.647      65.000
 19.657      65.000
 19.667      65.000
 19.677      65.000
 19.687      65.000
 19.697      65.000
 19.707      65.000
 19.717      65.000
 19.727      65.000
 19.737      65.000
 19.748      65.000
 19.758      65.000
 19.768      65.000
 19.778      65.000
 19.788      65.000
 19.798      65.000
 19.808      65.000
 19.818      65.000
 19.828      65.000
 19.838      65.000
 19.848      65.000
 19.858      65.000
 19.868      65.000
 19.878      65.000
 19.888      65.000
 19.898      65.000
 19.908      65.000
 19.918      65.000
 19.928      65.000
 19.938      65.000
 19.948      65.000
 19.958      65.000
 19.968      65.000
 19.978      65.000
 19.988      65.000
 19.998      65.000
 20.008      65.000
 20.018      65.000
 20.028      65.000
 20.038      65.000
 20.048      65.000
 20.058      65.000
 20.068      65.000
 20.078      65.000
 20.088      65.000
 20.098      65.000
 20.108      65.000
 20.118      65.000
 20.128      65.000
 20.138      65.000
 20.148      65.000
 20.158      65.000
 20.168      65.000
 20.178      65.000
 20.188      65.000
 20.198      65.000
 20.208      65.000
 20.218      65.000
 20.228      65.000
 20.238      65.000
 20.248      65.000
 20.258      65.000
 20.268      65.000
 20.278      65.000
 20.288      65.000
 20.299      65.000
 20.309      65.000
 20.319      65.000
 20.329      65.000
 20.339      65.000
 20.349      65.000
 20.359      65.000
 20.369      65.000
 20.379      65.000
 20.389      65.000
 20.399      65.000
 20.409      65.000
 20.419      65.000
 20.429      65.000
 20.439      65.000
 20.449      65.000
 20.459      65.000
 20.469      65.000
 20.479      65.000
 20.489      65.000
 20.499      65.000
 20.509      65.000
 20.519      65.000
 20.529      65.000
 20.539      65.000
 20.549      65.000
 20.559      65.000
 20.569      65.000
 20.579      65.000
 20.589      65.000
 20.599      65.000
 20.609      65.000
 20.619      65.000
 20.629      65.000
 20.639      65.000
 20.649      65.000
 20.659      65.000
 20.669      65.000
 20.679      65.000
 20.689      65.000
 20.699      65.000
 20.709      65.000
 20.719      65.000
 20.729      65.000
 20.739      65.000
 20.749      65.000
 20.759      65.000
 20.769      65.000
 20.779      65.000
 20.789      65.000
 20.799      65.000
 20.809      65.000
 20.819      65.000
 20.829      65.000
 20.839      65.000
 20.849      65.000
 20.860      65.000
 20.870      65.000
 20.880      65.000
 20.890      65.000
 20.900      65.000
 20.910      65.000
 20.920      65.000
 20.930      65.000
 20.940      65.000
 20.950      65.000
 20.960      65.000
 20.970      65.000
 20.980      65.000
 20.990      65.000
 21.000      65.000
 21.010      65.000
 21.020      65.000
 21.030      65.000
 21.040      65.000
 21.050      65.000
 21.060      65.000
 21.070      65.000
 21.080      65.000
 21.090      65.000
 21.100      65.000
 21.110      65.000
 21.120      65.000
 21.130      65.000
 21.140      65.000
 21.150      65.000
 21.160      65.000
 21.170      65.000
 21.180      65.000
 21.190      65.000
 21.200      65.000
 21.210      65.000
 21.220      65.000
 21.230      65.000
 21.240      65.000
 21.250      65.000
 21.260      65.000
 21.270      65.000
 21.280      65.000
 21.290      65.000
 21.300      65.000
 21.310      65.000
 21.320      65.000
 21.330      65.000
 21.340      65.000
 21.350      65.000
 21.360      65.000
 21.370      65.000
 21.380      65.000
 21.390      65.000
 21.400      65.000
 21.411      65.000
 21.421      65.000
 21.431      65.000
 21.441      65.000
 21.451      65.000
 21.461      65.000
 21.471      65.000
 21.481      65.000
 21.491      65.000
 21.501      65.000
 21.511      65.000
 21.521      65.000
 21.531      65.000
 21.541      65.000
 21.551      65.000
 21.561      65.000
 21.571      65.000
 21.581      65.000
 21.591      65.000
 21.601      65.000
 21.611      65.000
 21.621      65.000
 21.631      65.000
 21.641      65.000
 21.651      65.000
 21.661      65.000
 21.671      65.000
 21.681      65.000
 21.691      65.000
 21.701      65.000
 21.711      65.000
 21.721      65.000
 21.731      65.000
 21.741      65.000
 21.751      65.000
 21.761      65.000
 21.771      65.000
 21.781      65.000
 21.791      65.000
 21.801      65.000
 21.811      65.000
 21.821      65.000
 21.831      65.000
 21.841      65.000
 21.851      65.000
 21.861      65.000
 21.871      65.000
 21.881      65.000
 21.891      65.000
 21.901      65.000
 21.911      65.000
 21.921      65.000
 21.931      65.000
 21.941      65.000
 21.951      65.000
 21.961      65.000
 21.972      65.000
 21.982      65.000
 21.992      65.000
 22.002      65.000
 22.012      65.000
 22.022      65.000
 22.032      65.000
 22.042      65.000
 22.052      65.000
 22.062      65.000
 22.072      65.000
 22.082      65.000
 22.092      65.000
 22.102      65.000
 22.112      65.000
 22.122      65.000
 22.132      65.000
 22.142      65.000
 22.152      65.000
 22.162      65.000
 22.172      65.000
 22.182      65.000
 22.192      65.000
 22.202      65.000
 22.212      65.000
 22.222      65.000
 22.232      65.000
 22.242      65.000
 22.252      65.000
 22.262      65.000
 22.272      65.000
 22.282      65.000
 22.292      65.000
 22.302      65.000
 22.312      65.000
 22.322      65.000
 22.332      65.000
 22.342      65.000
 22.352      65.000
 22.362      65.000
 22.372      65.000
 22.382      65.000
 22.392      65.000
 22.402      65.000
 22.412      65.000
 22.422      65.000
 22.432      65.000
 22.442      65.000
 22.452      65.000
 22.462      65.000
 22.472      65.000
 22.482      65.000
 22.492      65.000
 22.502      65.000
 22.512      65.000
 22.522      65.000
 22.533      65.000
 22.543      65.000
 22.553      65.000
 22.563      65.000
 22.573      65.000
 22.583      65.000
 22.593      65.000
 22.603      65.000
 22.613      65.000
 22.623      65.000
 22.633      65.000
 22.643      65.000
 22.653      65.000
 22.663      65.000
 22.673      65.000
 22.683      65.000
 22.693      65.000
 22.703      65.000
 22.713      65.000
 22.723      65.000
 22.733      65.000
 22.743      65.000
 22.753      65.000
 22.763      65.000
 22.773      65.000
 22.783      65.000
 22.793      65.000
 22.803      65.000
 22.813      65.000
 22.823      65.000
 22.833      65.000
 22.843      65.000
 22.853      65.000
 22.863      65.000
 22.873      65.000
 22.883      65.000
 22.893      65.000
 22.903      65.000
 22.913      65.000
 22.923      65.000
 22.933      65.000
 22.943      65.000
 22.953      65.000
 22.963      65.000
 22.973      65.000
 22.983      65.000
 22.993      65.000
 23.003      65.000
 23.013      65.000
 23.023      65.000
 23.033      65.000
 23.043      65.000
 23.053      65.000
 23.063      65.000
 23.073      65.000
 23.084      65.000
 23.094      65.000
 23.104      65.000
 23.114      65.000
 23.124      65.000
 23.134      65.000
 23.144      65.000
 23.154      65.000
 23.164      65.000
 23.174      65.000
 23.184      65.000
 23.194      65.000
 23.204      65.000
 23.214      65.000
 23.224      65.000
 23.234      65.000
 23.244      65.000
 23.254      65.000
 23.264      65.000
 23.274      65.000
 23.284      65.000
 23.294      65.000
 23.304      65.000
 23.314      65.000
 23.324      65.000
 23.334      65.000
 23.344      65.000
 23.354      65.000
 23.364      65.000
 23.374      65.000
 23.384      65.000
 23.394      65.000
 23.404      65.000
 23.414      65.000
 23.424      65.000
 23.434      65.000
 23.444      65.000
 23.454      65.000
 23.464      65.000
 23.474      65.000
 23.484      65.000
 23.494      65.000
 23.504      65.000
 23.514      65.000
 23.524      65.000
 23.534      65.000
 23.544      65.000
 23.554      65.000
 23.564      65.000
 23.574      65.000
 23.584      65.000
 23.594      65.000
 23.604      65.000
 23.614      65.000
 23.624      65.000
 23.634      65.000
 23.645      65.000
 23.655      65.000
 23.665      65.000
 23.675      65.000
 23.685      65.000
 23.695      65.000
 23.705      65.000
 23.715      65.000
 23.725      65.000
 23.735      65.000
 23.745      65.000
 23.755      65.000
 23.765      65.000
 23.775      65.000
 23.785      65.000
 23.795      65.000
 23.805      65.000
 23.815      65.000
 23.825      65.000
 23.835      65.000
 23.845      65.000
 23.855      65.000
 23.865      65.000
 23.875      65.000
 23.885      65.000
 23.895      65.000
 23.905      65.000
 23.915      65.000
 23.925      65.000
 23.935      65.000
 23.945      65.000
 23.955      65.000
 23.965      65.000
 23.975      65.000
 23.985      65.000
 23.995      65.000
 24.005      65.000
 24.015      65.000
 24.025      65.000
 24.035      65.000
 24.045      65.000
 24.055      65.000
 24.065      65.000
 24.075      65.000
 24.085      65.000
 24.095      65.000
 24.105      65.000
 24.115      65.000
 24.125      65.000
 24.135      65.000
 24.145      65.000
 24.155      65.000
 24.165      65.000
 24.175      65.000
 24.185      65.000
 24.196      65.000
 24.206      65.000
 24.216      65.000
 24.226      65.000
 24.236      65.000
 24.246      65.000
 24.256      65.000
 24.266      65.000
 24.276      65.000
 24.286      65.000
 24.296      65.000
 24.306      65.000
 24.316      65.000
 24.326      65.000
 24.336      65.000
 24.346      65.000
 24.356      65.000
 24.366      65.000
 24.376      65.000
 24.386      65.000
 24.396      65.000
 24.406      65.000
 24.416      65.000
 24.426      65.000
 24.436      65.000
 24.446      65.000
 24.456      65.000
 24.466      65.000
 24.476      65.000
 24.486      65.000
 24.496      65.000
 24.506      65.000
 24.516      65.000
 24.526      65.000
 24.536      65.000
 24.546      65.000
 24.556      65.000
 24.566      65.000
 24.576      65.000
 24.586      65.000
 24.596      65.000
 24.606      65.000
 24.616      65.000
 24.626      65.000
 24.636      65.000
 24.646      65.000
 24.656      65.000
 24.666      65.000
 24.676      65.000
 24.686      65.000
 24.696      65.000
 24.706      65.000
 24.716      65.000
 24.726      65.000
 24.736      65.000
 24.746      65.000
 24.757      65.000
 24.767      65.000
 24.777      65.000
 24.787      65.000
 24.797      65.000
 24.807      65.000
 24.817      65.000
 24.827      65.000
 24.837      65.000
 24.847      65.000
 24.857      65.000
 24.867      65.000
 24.877      65.000
 24.887      65.000
 24.897      65.000
 24.907      65.000
 24.917      65.000
 24.927      65.000
 24.937      65.000
 24.947      65.000
 24.957      65.000
 24.967      65.000
 24.977      65.000
 24.987      65.000
 24.997      65.000
 25.007      65.000
 25.017      65.000
 25.027      65.000
 25.037      65.000
 25.047      65.000
 25.057      65.000
 25.067      65.000
 25.077      65.000
 25.087      65.000
 25.097      65.000
 25.107      65.000
 25.117      65.000
 25.127      65.000
 25.137      65.000
 25.147      65.000
 25.157      65.000
 25.167      65.000
 25.177      65.000
 25.187      65.000
 25.197      65.000
 25.207      65.000
 25.217      65.000
 25.227      65.000
 25.237      65.000
 25.247      65.000
 25.257      65.000
 25.267      65.000
 25.277      65.000
 25.287      65.000
 25.297      65.000
 25.308      65.000
 25.318      65.000
 25.328      65.000
 25.338      65.000
 25.348      65.000
 25.358      65.000
 25.368      65.000
 25.378      65.000
 25.388      65.000
 25.398      65.000
 25.408      65.000
 25.418      65.000
 25.428      65.000
 25.438      65.000
 25.448      65.000
 25.458      65.000
 25.468      65.000
 25.478      65.000
 25.488      65.000
 25.498      65.000
 25.508      65.000
 25.518      65.000
 25.528      65.000
 25.538      65.000
 25.548      65.000
 25.558      65.000
 25.568      65.000
 25.578      65.000
 25.588      65.000
 25.598      65.000
 25.608      65.000
 25.618      65.000
 25.628      65.000
 25.638      65.000
 25.648      65.000
 25.658      65.000
 25.668      65.000
 25.678      65.000
 25.688      65.000
 25.698      65.000
 25.708      65.000
 25.718      65.000
 25.728      65.000
 25.738      65.000
 25.748      65.000
 25.758      65.000
 25.768      65.000
 25.778      65.000
 25.788      65.000
 25.798      65.000
 25.808      65.000
 25.818      65.000
 25.828      65.000
 25.838      65.000
 25.848      65.000
 25.858      65.000
 25.869      65.000
 25.879      65.000
 25.889      65.000
 25.899      65.000
 25.909      65.000
 25.919      65.000
 25.929      65.000
 25.939      65.000
 25.949      65.000
 25.959      65.000
 25.969      65.000
 25.979      65.000
 25.989      65.000
 25.999      65.000
 26.009      65.000
 26.019      65.000
 26.029      65.000
 26.039      65.000
 26.049      65.000
 26.059      65.000
 26.069      65.000
 26.079      65.000
 26.089      65.000
 26.099      65.000
 26.109      65.000
 26.119      65.000
 26.129      65.000
 26.139      65.000
 26.149      65.000
 26.159      65.000
 26.169      65.000
 26.179      65.000
 26.189      65.000
 26.199      65.000
 26.209      65.000
 26.219      65.000
 26.229      65.000
 26.239      65.000
 26.249      65.000
 26.259      65.000
 26.269      65.000
 26.279      65.000
 26.289      65.000
 26.299      65.000
 26.309      65.000
 26.319      65.000
 26.329      65.000
 26.339      65.000
 26.349      65.000
 26.359      65.000
 26.369      65.000
 26.379      65.000
 26.389      65.000
 26.399      65.000
 26.409      65.000
 26.420      65.000
 26.430      65.000
 26.440      65.000
 26.450      65.000
 26.460      65.000
 26.470      65.000
 26.480      65.000
 26.490      65.000
 26.500      65.000
 26.510      65.000
 26.520      65.000
 26.530      65.000
 26.540      65.000
 26.550      65.000
 26.560      65.000
 26.570      65.000
 26.580      65.000
 26.590      65.000
 26.600      65.000
 26.610      65.000
 26.620      65.000
 26.630      65.000
 26.640      65.000
 26.650      65.000
 26.660      65.000
 26.670      65.000
 26.680      65.000
 26.690      65.000
 26.700      65.000
 26.710      65.000
 26.720      65.000
 26.730      65.000
 26.740      65.000
 26.750      65.000
 26.760      65.000
 26.770      65.000
 26.780      65.000
 26.790      65.000
 26.800      65.000
 26.810      65.000
 26.820      65.000
 26.830      65.000
 26.840      65.000
 26.850      65.000
 26.860      65.000
 26.870      65.000
 26.880      65.000
 26.890      65.000
 26.900      65.000
 26.910      65.000
 26.920      65.000
 26.930      65.000
 26.940      65.000
 26.950      65.000
 26.960      65.000
 26.970      65.000
 26.981      65.000
 26.991      65.000
 27.001      65.000
 27.011      65.000
 27.021      65.000
 27.031      65.000
 27.041      65.000
 27.051      65.000
 27.061      65.000
 27.071      65.000
 27.081      65.000
 27.091      65.000
 27.101      65.000
 27.111      65.000
 27.121      65.000
 27.131      65.000
 27.141      65.000
 27.151      65.000
 27.161      65.000
 27.171      65.000
 27.181      65.000
 27.191      65.000
 27.201      65.000
 27.211      65.000
 27.221      65.000
 27.231      65.000
 27.241      65.000
 27.251      65.000
 27.261      65.000
 27.271      65.000
 27.281      65.000
 27.291      65.000
 27.301      65.000
 27.311      65.000
 27.321      65.000
 27.331      65.000
 27.341      65.000
 27.351      65.000
 27.361      65.000
 27.371      65.000
 27.381      65.000
 27.391      65.000
 27.401      65.000
 27.411      65.000
 27.421      65.000
 27.431      65.000
 27.441      65.000
 27.451      65.000
 27.461      65.000
 27.471      65.000
 27.481      65.000
 27.491      65.000
 27.501      65.000
 27.511      65.000
 27.521      65.000
 27.531      65.000
 27.542      65.000
 27.552      65.000
 27.562      65.000
 27.572      65.000
 27.582      65.000
 27.592      65.000
 27.602      65.000
 27.612      65.000
 27.622      65.000
 27.632      65.000
 27.642      65.000
 27.652      65.000
 27.662      65.000
 27.672      65.000
 27.682      65.000
 27.692      65.000
 27.702      65.000
 27.712      65.000
 27.722      65.000
 27.732      65.000
 27.742      65.000
 27.752      65.000
 27.762      65.000
 27.772      65.000
 27.782      65.000
 27.792      65.000
 27.802      65.000
 27.812      65.000
 27.822      65.000
 27.832      65.000
 27.842      65.000
 27.852      65.000
 27.862      65.000
 27.872      65.000
 27.882      65.000
 27.892      65.000
 27.902      65.000
 27.912      65.000
 27.922      65.000
 27.932      65.000
 27.942      65.000
 27.952      65.000
 27.962      65.000
 27.972      65.000
 27.982      65.000
 27.992      65.000
 28.002      65.000
 28.012      65.000
 28.022      65.000
 28.032      65.000
 28.042      65.000
 28.052      65.000
 28.062      65.000
 28.072      65.000
 28.082      65.000
 28.093      65.000
 28.103      65.000
 28.113      65.000
 28.123      65.000
 28.133      65.000
 28.143      65.000
 28.153      65.000
 28.163      65.000
 28.173      65.000
 28.183      65.000
 28.193      65.000
 28.203      65.000
 28.213      65.000
 28.223      65.000
 28.233      65.000
 28.243      65.000
 28.253      65.000
 28.263      65.000
 28.273      65.000
 28.283      65.000
 28.293      65.000
 28.303      65.000
 28.313      65.000
 28.323      65.000
 28.333      65.000
 28.343      65.000
 28.353      65.000
 28.363      65.000
 28.373      65.000
 28.383      65.000
 28.393      65.000
 28.403      65.000
 28.413      65.000
 28.423      65.000
 28.433      65.000
 28.443      65.000
 28.453      65.000
 28.463      65.000
 28.473      65.000
 28.483      65.000
 28.493      65.000
 28.503      65.000
 28.513      65.000
 28.523      65.000
 28.533      65.000
 28.543      65.000
 28.553      65.000
 28.563      65.000
 28.573      65.000
 28.583      65.000
 28.593      65.000
 28.603      65.000
 28.613      65.000
 28.623      65.000
 28.633      65.000
 28.643      65.000
 28.654      65.000
 28.664      65.000
 28.674      65.000
 28.684      65.000
 28.694      65.000
 28.704      65.000
 28.714      65.000
 28.724      65.000
 28.734      65.000
 28.744      65.000
 28.754      65.000
 28.764      65.000
 28.774      65.000
 28.784      65.000
 28.794      65.000
 28.804      65.000
 28.814      65.000
 28.824      65.000
 28.834      65.000
 28.844      65.000
 28.854      65.000
 28.864      65.000
 28.874      65.000
 28.884      65.000
 28.894      65.000
 28.904      65.000
 28.914      65.000
 28.924      65.000
 28.934      65.000
 28.944      65.000
 28.954      65.000
 28.964      65.000
 28.974      65.000
 28.984      65.000
 28.994      65.000
 29.004      65.000
 29.014      65.000
 29.024      65.000
 29.034      65.000
 29.044      65.000
 29.054      65.000
 29.064      65.000
 29.074      65.000
 29.084      65.000
 29.094      65.000
 29.104      65.000
 29.114      65.000
 29.124      65.000
 29.134      65.000
 29.144      65.000
 29.154      65.000
 29.164      65.000
 29.174      65.000
 29.184      65.000
 29.194      65.000
 29.205      65.000
 29.215      65.000
 29.225      65.000
 29.235      65.000
 29.245      65.000
 29.255      65.000
 29.265      65.000
 29.275      65.000
 29.285      65.000
 29.295      65.000
 29.305      65.000
 29.315      65.000
 29.325      65.000
 29.335      65.000
 29.345      65.000
 29.355      65.000
 29.365      65.000
 29.375      65.000
 29.385      65.000
 29.395      65.000
 29.405      65.000
 29.415      65.000
 29.425      65.000
 29.435      65.000
 29.445      65.000
 29.455      65.000
 29.465      65.000
 29.475      65.000
 29.485      65.000
 29.495      65.000
 29.505      65.000
 29.515      65.000
 29.525      65.000
 29.535      65.000
 29.545      65.000
 29.555      65.000
 29.565      65.000
 29.575      65.000
 29.585      65.000
 29.595      65.000
 29.605      65.000
 29.615      65.000
 29.625      65.000
 29.635      65.000
 29.645      65.000
 29.655      65.000
 29.665      65.000
 29.675      65.000
 29.685      65.000
 29.695      65.000
 29.705      65.000
 29.715      65.000
 29.725      65.000
 29.735      65.000
 29.745      65.000
 29.755      65.000
 29.766      65.000
 29.776      65.000
 29.786      65.000
 29.796      65.000
 29.806      65.000
 29.816      65.000
 29.826      65.000
 29.836      65.000
 29.846      65.000
 29.856      65.000
 29.866      65.000
 29.876      65.000
 29.886      65.000
 29.896      65.000
 29.906      65.000
 29.916      65.000
 29.926      65.000
 29.936      65.000
 29.946      65.000
 29.956      65.000
 29.966      65.000
 29.976      65.000
 29.986      65.000
 29.996      65.000
 30.006      65.000
 30.016      65.000
 30.026      65.000
 30.036      65.000
 30.046      65.000
 30.056      65.000
 30.066      65.000
 30.076      65.000
 30.086      65.000
 30.096      65.000
 30.106      65.000
 30.116      65.000
 30.126      65.000
 30.136      65.000
 30.146      65.000
 30.156      65.000
 30.166      65.000
 30.176      65.000
 30.186      65.000
 30.196      65.000
 30.206      65.000
 30.216      65.000
 30.226      65.000
 30.236      65.000
 30.246      65.000
 30.256      65.000
 30.266      65.000
 30.276      65.000
 30.286      65.000
 30.296      65.000
 30.306      65.000
 30.317      65.000
 30.327      65.000
 30.337      65.000
 30.347      65.000
 30.357      65.000
 30.367      65.000
 30.377      65.000
 30.387      65.000
 30.397      65.000
 30.407      65.000
 30.417      65.000
 30.427      65.000
 30.437      65.000
 30.447      65.000
 30.457      65.000
 30.467      65.000
 30.477      65.000
 30.487      65.000
 30.497      65.000
 30.507      65.000
 30.517      65.000
 30.527      65.000
 30.537      65.000
 30.547      65.000
 30.557      65.000
 30.567      65.000
 30.577      65.000
 30.587      65.000
 30.597      65.000
 30.607      65.000
 30.617      65.000
 30.627      65.000
 30.637      65.000
 30.647      65.000
 30.657      65.000
 30.667      65.000
 30.677      65.000
 30.687      65.000
 30.697      65.000
 30.707      65.000
 30.717      65.000
 30.727      65.000
 30.737      65.000
 30.747      65.000
 30.757      65.000
 30.767      65.000
 30.777      65.000
 30.787      65.000
 30.797      65.000
 30.807      65.000
 30.817      65.000
 30.827      65.000
 30.837      65.000
 30.847      65.000
 30.857      65.000
 30.867      65.000
 30.878      65.000
 30.888      65.000
 30.898      65.000
 30.908      65.000
 30.918      65.000
 30.928      65.000
 30.938      65.000
 30.948      65.000
 30.958      65.000
 30.968      65.000
 30.978      65.000
 30.988      65.000
 30.998      65.000
 31.008      65.000
 31.018      65.000
 31.028      65.000
 31.038      65.000
 31.048      65.000
 31.058      65.000
 31.068      65.000
 31.078      65.000
 31.088      65.000
 31.098      65.000
 31.108      65.000
 31.118      65.000
 31.128      65.000
 31.138      65.000
 31.148      65.000
 31.158      65.000
 31.168      65.000
 31.178      65.000
 31.188      65.000
 31.198      65.000
 31.208      65.000
 31.218      65.000
 31.228      65.000
 31.238      65.000
 31.248      65.000
 31.258      65.000
 31.268      65.000
 31.278      65.000
 31.288      65.000
 31.298      65.000
 31.308      65.000
 31.318      65.000
 31.328      65.000
 31.338      65.000
 31.348      65.000
 31.358      65.000
 31.368      65.000
 31.378      65.000
 31.388      65.000
 31.398      65.000
 31.408      65.000
 31.418      65.000
 31.429      65.000
 31.439      65.000
 31.449      65.000
 31.459      65.000
 31.469      65.000
 31.479      65.000
 31.489      65.000
 31.499      65.000
 31.509      65.000
 31.519      65.000
 31.529      65.000
 31.539      65.000
 31.549      65.000
 31.559      65.000
 31.569      65.000
 31.579      65.000
 31.589      65.000
 31.599      65.000
 31.609      65.000
 31.619      65.000
 31.629      65.000
 31.639      65.000
 31.649      65.000
 31.659      65.000
 31.669      65.000
 31.679      65.000
 31.689      65.000
 31.699      65.000
 31.709      65.000
 31.719      65.000
 31.729      65.000
 31.739      65.000
 31.749      65.000
 31.759      65.000
 31.769      65.000
 31.779      65.000
 31.789      65.000
 31.799      65.000
 31.809      65.000
 31.819      65.000
 31.829      65.000
 31.839      65.000
 31.849      65.000
 31.859      65.000
 31.869      65.000
 31.879      65.000
 31.889      65.000
 31.899      65.000
 31.909      65.000
 31.919      65.000
 31.929      65.000
 31.939      65.000
 31.949      65.000
 31.959      65.000
 31.969      65.000
 31.979      65.000
 31.990      65.000
 32.000      65.000
 32.010      65.000
 32.020      65.000
 32.030      65.000
 32.040      65.000
 32.050      65.000
 32.060      65.000
 32.070      65.000
 32.080      65.000
 32.090      65.000
 32.100      65.000
 32.110      65.000
 32.120      65.000
 32.130      65.000
 32.140      65.000
 32.150      65.000
 32.160      65.000
 32.170      65.000
 32.180      65.000
 32.190      65.000
 32.200      65.000
 32.210      65.000
 32.220      65.000
 32.230      65.000
 32.240      65.000
 32.250      65.000
 32.260      65.000
 32.270      65.000
 32.280      65.000
 32.290      65.000
 32.300      65.000
 32.310      65.000
 32.320      65.000
 32.330      65.000
 32.340      65.000
 32.350      65.000
 32.360      65.000
 32.370      65.000
 32.380      65.000
 32.390      65.000
 32.400      65.000
 32.410      65.000
 32.420      65.000
 32.430      65.000
 32.440      65.000
 32.450      65.000
 32.460      65.000
 32.470      65.000
 32.480      65.000
 32.490      65.000
 32.500      65.000
 32.510      65.000
 32.520      65.000
 32.530      65.000
 32.541      65.000
 32.551      65.000
 32.561      65.000
 32.571      65.000
 32.581      65.000
 32.591      65.000
 32.601      65.000
 32.611      65.000
 32.621      65.000
 32.631      65.000
 32.641      65.000
 32.651      65.000
 32.661      65.000
 32.671      65.000
 32.681      65.000
 32.691      65.000
 32.701      65.000
 32.711      65.000
 32.721      65.000
 32.731      65.000
 32.741      65.000
 32.751      65.000
 32.761      65.000
 32.771      65.000
 32.781      65.000
 32.791      65.000
 32.801      65.000
 32.811      65.000
 32.821      65.000
 32.831      65.000
 32.841      65.000
 32.851      65.000
 32.861      65.000
 32.871      65.000
 32.881      65.000
 32.891      65.000
 32.901      65.000
 32.911      65.000
 32.921      65.000
 32.931      65.000
 32.941      65.000
 32.951      65.000
 32.961      65.000
 32.971      65.000
 32.981      65.000
 32.991      65.000
 33.001      65.000
 33.011      65.000
 33.021      65.000
 33.031      65.000
 33.041      65.000
 33.051      65.000
 33.061      65.000
 33.071      65.000
 33.081      65.000
 33.091      65.000
 33.102      65.000
 33.112      65.000
 33.122      65.000
 33.132      65.000
 33.142      65.000
 33.152      65.000
 33.162      65.000
 33.172      65.000
 33.182      65.000
 33.192      65.000
 33.202      65.000
 33.212      65.000
 33.222      65.000
 33.232      65.000
 33.242      65.000
 33.252      65.000
 33.262      65.000
 33.272      65.000
 33.282      65.000
 33.292      65.000
 33.302      65.000
 33.312      65.000
 33.322      65.000
 33.332      65.000
 33.342      65.000
 33.352      65.000
 33.362      65.000
 33.372      65.000
 33.382      65.000
 33.392      65.000
 33.402      65.000
 33.412      65.000
 33.422      65.000
 33.432      65.000
 33.442      65.000
 33.452      65.000
 33.462      65.000
 33.472      65.000
 33.482      65.000
 33.492      65.000
 33.502      65.000
 33.512      65.000
 33.522      65.000
 33.532      65.000
 33.542      65.000
 33.552      65.000
 33.562      65.000
 33.572      65.000
 33.582      65.000
 33.592      65.000
 33.602      65.000
 33.612      65.000
 33.622      65.000
 33.632      65.000
 33.642      65.000
 33.652      65.000
 33.663      65.000
 33.673      65.000
 33.683      65.000
 33.693      65.000
 33.703      65.000
 33.713      65.000
 33.723      65.000
 33.733      65.000
 33.743      65.000
 33.753      65.000
 33.763      65.000
 33.773      65.000
 33.783      65.000
 33.793      65.000
 33.803      65.000
 33.813      65.000
 33.823      65.000
 33.833      65.000
 33.843      65.000
 33.853      65.000
 33.863      65.000
 33.873      65.000
 33.883      65.000
 33.893      65.000
 33.903      65.000
 33.913      65.000
 33.923      65.000
 33.933      65.000
 33.943      65.000
 33.953      65.000
 33.963      65.000
 33.973      65.000
 33.983      65.000
 33.993      65.000
 34.003      65.000
 34.013      65.000
 34.023      65.000
 34.033      65.000
 34.043      65.000
 34.053      65.000
 34.063      65.000
 34.073      65.000
 34.083      65.000
 34.093      65.000
 34.103      65.000
 34.113      65.000
 34.123      65.000
 34.133      65.000
 34.143      65.000
 34.153      65.000
 34.163      65.000
 34.173      65.000
 34.183      65.000
 34.193      65.000
 34.203      65.000
 34.214      65.000
 34.224      65.000
 34.234      65.000
 34.244      65.000
 34.254      65.000
 34.264      65.000
 34.274      65.000
 34.284      65.000
 34.294      65.000
 34.304      65.000
 34.314      65.000
 34.324      65.000
 34.334      65.000
 34.344      65.000
 34.354      65.000
 34.364      65.000
 34.374      65.000
 34.384      65.000
 34.394      65.000
 34.404      65.000
 34.414      65.000
 34.424      65.000
 34.434      65.000
 34.444      65.000
 34.454      65.000
 34.464      65.000
 34.474      65.000
 34.484      65.000
 34.494      65.000
 34.504      65.000
 34.514      65.000
 34.524      65.000
 34.534      65.000
 34.544      65.000
 34.554      65.000
 34.564      65.000
 34.574      65.000
 34.584      65.000
 34.594      65.000
 34.604      65.000
 34.614      65.000
 34.624      65.000
 34.634      65.000
 34.644      65.000
 34.654      65.000
 34.664      65.000
 34.674      65.000
 34.684      65.000
 34.694      65.000
 34.704      65.000
 34.714      65.000
 34.724      65.000
 34.734      65.000
 34.744      65.000
 34.754      65.000
 34.764      65.000
 34.775      65.000
 34.785      65.000
 34.795      65.000
 34.805      65.000
 34.815      65.000
 34.825      65.000
 34.835      65.000
 34.845      65.000
 34.855      65.000
 34.865      65.000
 34.875      65.000
 34.885      65.000
 34.895      65.000
 34.905      65.000
 34.915      65.000
 34.925      65.000
 34.935      65.000
 34.945      65.000
 34.955      65.000
 34.965      65.000
 34.975      65.000
 34.985      65.000
 34.995      65.000
 35.005      65.000
 35.015      65.000
 35.025      65.000
 35.035      65.000
 35.045      65.000
 35.055      65.000
 35.065      65.000
 35.075      65.000
 35.085      65.000
 35.095      65.000
 35.105      65.000
 35.115      65.000
 35.125      65.000
 35.135      65.000
 35.145      65.000
 35.155      65.000
 35.165      65.000
 35.175      65.000
 35.185      65.000
 35.195      65.000
 35.205      65.000
 35.215      65.000
 35.225      65.000
 35.235      65.000
 35.245      65.000
 35.255      65.000
 35.265      65.000
 35.275      65.000
 35.285      65.000
 35.295      65.000
 35.305      65.000
 35.315      65.000
 35.326      65.000
 35.336      65.000
 35.346      65.000
 35.356      65.000
 35.366      65.000
 35.376      65.000
 35.386      65.000
 35.396      65.000
 35.406      65.000
 35.416      65.000
 35.426      65.000
 35.436      65.000
 35.446      65.000
 35.456      65.000
 35.466      65.000
 35.476      65.000
 35.486      65.000
 35.496      65.000
 35.506      65.000
 35.516      65.000
 35.526      65.000
 35.536      65.000
 35.546      65.000
 35.556      65.000
 35.566      65.000
 35.576      65.000
 35.586      65.000
 35.596      65.000
 35.606      65.000
 35.616      65.000
 35.626      65.000
 35.636      65.000
 35.646      65.000
 35.656      65.000
 35.666      65.000
 35.676      65.000
 35.686      65.000
 35.696      65.000
 35.706      65.000
 35.716      65.000
 35.726      65.000
 35.736      65.000
 35.746      65.000
 35.756      65.000
 35.766      65.000
 35.776      65.000
 35.786      65.000
 35.796      65.000
 35.806      65.000
 35.816      65.000
 35.826      65.000
 35.836      65.000
 35.846      65.000
 35.856      65.000
 35.866      65.000
 35.876      65.000
 35.887      65.000
 35.897      65.000
 35.907      65.000
 35.917      65.000
 35.927      65.000
 35.937      65.000
 35.947      65.000
 35.957      65.000
 35.967      65.000
 35.977      65.000
 35.987      65.000
 35.997      65.000
 36.007      65.000
 36.017      65.000
 36.027      65.000
 36.037      65.000
 36.047      65.000
 36.057      65.000
 36.067      65.000
 36.077      65.000
 36.087      65.000
 36.097      65.000
 36.107      65.000
 36.117      65.000
 36.127      65.000
 36.137      65.000
 36.147      65.000
 36.157      65.000
 36.167      65.000
 36.177      65.000
 36.187      65.000
 36.197      65.000
 36.207      65.000
 36.217      65.000
 36.227      65.000
 36.237      65.000
 36.247      65.000
 36.257      65.000
 36.267      65.000
 36.277      65.000
 36.287      65.000
 36.297      65.000
 36.307      65.000
 36.317      65.000
 36.327      65.000
 36.337      65.000
 36.347      65.000
 36.357      65.000
 36.367      65.000
 36.377      65.000
 36.387      65.000
 36.397      65.000
 36.407      65.000
 36.417      65.000
 36.427      65.000
 36.438      65.000
 36.448      65.000
 36.458      65.000
 36.468      65.000
 36.478      65.000
 36.488      65.000
 36.498      65.000
 36.508      65.000
 36.518      65.000
 36.528      65.000
 36.538      65.000
 36.548      65.000
 36.558      65.000
 36.568      65.000
 36.578      65.000
 36.588      65.000
 36.598      65.000
 36.608      65.000
 36.618      65.000
 36.628      65.000
 36.638      65.000
 36.648      65.000
 36.658      65.000
 36.668      65.000
 36.678      65.000
 36.688      65.000
 36.698      65.000
 36.708      65.000
 36.718      65.000
 36.728      65.000
 36.738      65.000
 36.748      65.000
 36.758      65.000
 36.768      65.000
 36.778      65.000
 36.788      65.000
 36.798      65.000
 36.808      65.000
 36.818      65.000
 36.828      65.000
 36.838      65.000
 36.848      65.000
 36.858      65.000
 36.868      65.000
 36.878      65.000
 36.888      65.000
 36.898      65.000
 36.908      65.000
 36.918      65.000
 36.928      65.000
 36.938      65.000
 36.948      65.000
 36.958      65.000
 36.968      65.000
 36.978      65.000
 36.988      65.000
 36.999      65.000
 37.009      65.000
 37.019      65.000
 37.029      65.011
 37.039      65.025
 37.049      65.052
 37.059      65.107
 37.069      65.212
 37.079      65.410
 37.089      65.767
 37.099      66.395
 37.109      67.464
 37.119      69.227
 37.129      72.043
 37.139      76.401
 37.149      82.919
 37.159      92.355
 37.169     105.560
 37.179     123.408
 37.189     146.692
 37.199     175.984
 37.209     211.426
 37.219     252.630
 37.229     298.515
 37.239     347.264
 37.249     396.378
 37.259     442.867
 37.269     483.464
 37.279     515.096
 37.289     535.197
 37.299     542.070
 37.309     535.124
 37.319     514.956
 37.329     483.255
 37.339     442.616
 37.349     396.121
 37.359     347.001
 37.369     298.261
 37.379     252.397
 37.389     211.207
 37.399     175.799
 37.409     146.552
 37.419     123.299
 37.429     105.478
 37.439      92.296
 37.449      82.875
 37.459      76.370
 37.469      72.025
 37.479      69.215
 37.489      67.457
 37.499      66.391
 37.509      65.764
 37.519      65.408
 37.529      65.212
 37.539      65.107
 37.549      65.052
 37.560      65.025
 37.570      65.011
 37.580      65.000
 37.590      65.000
 37.600      65.000
 37.610      65.000
 37.620      65.000
 37.630      65.000
 37.640      65.000
 37.650      65.000
 37.660      65.000
 37.670      65.000
 37.680      65.000
 37.690      65.000
 37.700      65.000
 37.710      65.000
 37.720      65.000
 37.730      65.000
 37.740      65.000
 37.750      65.000
 37.760      65.000
 37.770      65.000
 37.780      65.000
 37.790      65.000
 37.800      65.000
 37.810      65.000
 37.820      65.000
 37.830      65.000
 37.840      65.000
 37.850      65.000
 37.860      65.000
 37.870      65.000
 37.880      65.000
 37.890      65.000
 37.900      65.000
 37.910      65.000
 37.920      65.000
 37.930      65.000
 37.940      65.000
 37.950      65.000
 37.960      65.000
 37.970      65.000
 37.980      65.000
 37.990      65.000
 38.000      65.000
 38.010      65.000
 38.020      65.000
 38.030      65.000
 38.040      65.000
 38.050      65.000
 38.060      65.000
 38.070      65.000
 38.080      65.000
 38.090      65.000
 38.100      65.000
 38.111      65.000
 38.121      65.000
 38.131      65.000
 38.141      65.000
 38.151      65.000
 38.161      65.000
 38.171      65.000
 38.181      65.000
 38.191      65.000
 38.201      65.000
 38.211      65.000
 38.221      65.000
 38.231      65.000
 38.241      65.000
 38.251      65.000
 38.261      65.000
 38.271      65.000
 38.281      65.000
 38.291      65.000
 38.301      65.000
 38.311      65.000
 38.321      65.000
 38.331      65.000
 38.341      65.000
 38.351      65.000
 38.361      65.000
 38.371      65.000
 38.381      65.000
 38.391      65.000
 38.401      65.000
 38.411      65.000
 38.421      65.000
 38.431      65.000
 38.441      65.000
 38.451      65.000
 38.461      65.000
 38.471      65.000
 38.481      65.000
 38.491      65.000
 38.501      65.000
 38.511      65.000
 38.521      65.000
 38.531      65.000
 38.541      65.000
 38.551      65.000
 38.561      65.000
 38.571      65.000
 38.581      65.000
 38.591      65.000
 38.601      65.000
 38.611      65.000
 38.621      65.000
 38.631      65.000
 38.641      65.000
 38.651      65.000
 38.661      65.000
 38.672      65.000
 38.682      65.000
 38.692      65.000
 38.702      65.000
 38.712      65.000
 38.722      65.000
 38.732      65.000
 38.742      65.000
 38.752      65.000
 38.762      65.000
 38.772      65.000
 38.782      65.000
 38.792      65.000
 38.802      65.000
 38.812      65.000
 38.822      65.000
 38.832      65.000
 38.842      65.000
 38.852      65.000
 38.862      65.000
 38.872      65.000
 38.882      65.000
 38.892      65.000
 38.902      65.000
 38.912      65.000
 38.922      65.000
 38.932      65.000
 38.942      65.000
 38.952      65.000
 38.962      65.000
 38.972      65.000
 38.982      65.000
 38.992      65.000
 39.002      65.000
 39.012      65.000
 39.022      65.000
 39.032      65.000
 39.042      65.000
 39.052      65.000
 39.062      65.000
 39.072      65.000
 39.082      65.000
 39.092      65.000
 39.102      65.000
 39.112      65.000
 39.122      65.000
 39.132      65.000
 39.142      65.000
 39.152      65.000
 39.162      65.000
 39.172      65.000
 39.182      65.000
 39.192      65.000
 39.202      65.000
 39.212      65.000
 39.223      65.000
 39.233      65.000
 39.243      65.000
 39.253      65.000
 39.263      65.000
 39.273      65.000
 39.283      65.000
 39.293      65.000
 39.303      65.000
 39.313      65.000
 39.323      65.000
 39.333      65.000
 39.343      65.000
 39.353      65.000
 39.363      65.000
 39.373      65.000
 39.383      65.000
 39.393      65.000
 39.403      65.000
 39.413      65.000
 39.423      65.000
 39.433      65.000
 39.443      65.000
 39.453      65.000
 39.463      65.000
 39.473      65.000
 39.483      65.000
 39.493      65.000
 39.503      65.000
 39.513      65.000
 39.523      65.000
 39.533      65.000
 39.543      65.000
 39.553      65.000
 39.563      65.000
 39.573      65.000
 39.583      65.000
 39.593      65.000
 39.603      65.000
 39.613      65.000
 39.623      65.000
 39.633      65.000
 39.643      65.000
 39.653      65.000
 39.663      65.000
 39.673      65.000
 39.683      65.000
 39.693      65.000
 39.703      65.000
 39.713      65.000
 39.723      65.000
 39.733      65.000
 39.743      65.000
 39.753      65.000
 39.763      65.000
 39.773      65.000
 39.784      65.000
 39.794      65.000
 39.804      65.000
 39.814      65.000
 39.824      65.000
 39.834      65.000
 39.844      65.000
 39.854      65.000
 39.864      65.000
 39.874      65.000
 39.884      65.000
 39.894      65.000
 39.904      65.000
 39.914      65.000
 39.924      65.000
 39.934      65.000
 39.944      65.000
 39.954      65.000
 39.964      65.000
 39.974      65.000
 39.984      65.000
 39.994      65.000
 40.004      65.000
 40.014      65.000
 40.024      65.000
 40.034      65.000
 40.044      65.000
 40.054      65.000
 40.064      65.000
 40.074      65.000
 40.084      65.000
 40.094      65.000
 40.104      65.000
 40.114      65.000
 40.124      65.000
 40.134      65.000
 40.144      65.000
 40.154      65.000
 40.164      65.000
 40.174      65.000
 40.184      65.000
 40.194      65.000
 40.204      65.000
 40.214      65.000
 40.224      65.000
 40.234      65.000
 40.244      65.000
 40.254      65.000
 40.264      65.000
 40.274      65.000
 40.284      65.000
 40.294      65.000
 40.304      65.000
 40.314      65.000
 40.324      65.000
 40.335      65.000
 40.345      65.000
 40.355      65.000
 40.365      65.000
 40.375      65.042
 40.385      65.088
 40.395      65.179
 40.405      65.357
 40.415      65.691
 40.425      66.302
 40.435      67.389
 40.445      69.265
 40.455      72.411
 40.465      77.535
 40.475      85.635
 40.485      98.068
 40.495     116.567
 40.505     143.270
 40.515     180.629
 40.525     231.258
 40.535     297.676
 40.545     381.971
 40.555     485.225
 40.565     607.243
 40.575     746.014
 40.585     897.468
 40.595    1055.441
 40.605    1211.935
 40.615    1357.755
 40.625    1483.147
 40.635    1579.174
 40.645    1638.547
 40.655    1656.597
 40.665    1631.881
 40.675    1566.341
 40.685    1465.157
 40.695    1335.936
 40.705    1187.846
 40.715    1030.531
 40.725     873.094
 40.735     723.219
 40.745     586.868
 40.755     467.717
 40.765     367.475
 40.775     286.120
 40.785     222.332
 40.795     173.941
 40.805     138.430
 40.815     113.173
 40.825      95.760
 40.835      84.117
 40.845      76.564
 40.855      71.808
 40.865      68.900
 40.875      67.175
 40.885      66.181
 40.896      65.624
 40.906      65.321
 40.916      65.161
 40.926      65.078
 40.936      65.037
 40.946      65.000
 40.956      65.000
 40.966      65.000
 40.976      65.000
 40.986      65.000
 40.996      65.000
 41.006      65.000
 41.016      65.000
 41.026      65.000
 41.036      65.000
 41.046      65.000
 41.056      65.000
 41.066      65.000
 41.076      65.000
 41.086      65.000
 41.096      65.000
 41.106      65.000
 41.116      65.000
 41.126      65.000
 41.136      65.000
 41.146      65.000
 41.156      65.000
 41.166      65.000
 41.176      65.000
 41.186      65.000
 41.196      65.000
 41.206      65.000
 41.216      65.000
 41.226      65.000
 41.236      65.000
 41.246      65.000
 41.256      65.000
 41.266      65.000
 41.276      65.000
 41.286      65.000
 41.296      65.000
 41.306      65.000
 41.316      65.000
 41.326      65.000
 41.336      65.000
 41.346      65.000
 41.356      65.000
 41.366      65.000
 41.376      65.000
 41.386      65.000
 41.396      65.000
 41.406      65.000
 41.416      65.000
 41.426      65.000
 41.436      65.000
 41.447      65.000
 41.457      65.000
 41.467      65.000
 41.477      65.000
 41.487      65.000
 41.497      65.000
 41.507      65.000
 41.517      65.000
 41.527      65.000
 41.537      65.000
 41.547      65.000
 41.557      65.000
 41.567      65.000
 41.577      65.000
 41.587      65.000
 41.597      65.000
 41.607      65.000
 41.617      65.000
 41.627      65.000
 41.637      65.000
 41.647      65.000
 41.657      65.000
 41.667      65.000
 41.677      65.000
 41.687      65.000
 41.697      65.000
 41.707      65.000
 41.717      65.000
 41.727      65.000
 41.737      65.000
 41.747      65.000
 41.757      65.000
 41.767      65.000
 41.777      65.000
 41.787      65.000
 41.797      65.000
 41.807      65.000
 41.817      65.000
 41.827      65.000
 41.837      65.000
 41.847      65.000
 41.857      65.000
 41.867      65.000
 41.877      65.000
 41.887      65.000
 41.897      65.000
 41.907      65.000
 41.917      65.000
 41.927      65.000
 41.937      65.000
 41.947      65.000
 41.957      65.000
 41.967      65.000
 41.977      65.000
 41.987      65.000
 41.997      65.000
 42.008      65.000
 42.018      65.000
 42.028      65.000
 42.038      65.000
 42.048      65.000
 42.058      65.000
 42.068      65.000
 42.078      65.000
 42.088      65.000
 42.098      65.000
 42.108      65.000
 42.118      65.000
 42.128      65.000
 42.138      65.000
 42.148      65.000
 42.158      65.000
 42.168      65.000
 42.178      65.000
 42.188      65.000
 42.198      65.000
 42.208      65.000
 42.218      65.000
 42.228      65.000
 42.238      65.000
 42.248      65.000
 42.258      65.000
 42.268      65.000
 42.278      65.000
 42.288      65.000
 42.298      65.000
 42.308      65.000
 42.318      65.000
 42.328      65.000
 42.338      65.000
 42.348      65.000
 42.358      65.000
 42.368      65.000
 42.378      65.000
 42.388      65.000
 42.398      65.000
 42.408      65.000
 42.418      65.000
 42.428      65.000
 42.438      65.000
 42.448      65.000
 42.458      65.000
 42.468      65.000
 42.478      65.000
 42.488      65.000
 42.498      65.000
 42.508      65.000
 42.518      65.000
 42.528      65.000
 42.538      65.000
 42.548      65.000
 42.558      65.000
 42.569      65.000
 42.579      65.000
 42.589      65.000
 42.599      65.000
 42.609      65.000
 42.619      65.000
 42.629      65.000
 42.639      65.000
 42.649      65.000
 42.659      65.000
 42.669      65.000
 42.679      65.000
 42.689      65.000
 42.699      65.000
 42.709      65.000
 42.719      65.000
 42.729      65.000
 42.739      65.000
 42.749      65.000
 42.759      65.000
 42.769      65.000
 42.779      65.000
 42.789      65.000
 42.799      65.000
 42.809      65.000
 42.819      65.000
 42.829      65.000
 42.839      65.000
 42.849      65.000
 42.859      65.000
 42.869      65.000
 42.879      65.000
 42.889      65.000
 42.899      65.000
 42.909      65.000
 42.919      65.000
 42.929      65.000
 42.939      65.000
 42.949      65.000
 42.959      65.000
 42.969      65.000
 42.979      65.000
 42.989      65.000
 42.999      65.000
 43.009      65.000
 43.019      65.000
 43.029      65.000
 43.039      65.000
 43.049      65.000
 43.059      65.000
 43.069      65.000
 43.079      65.000
 43.089      65.000
 43.099      65.000
 43.109      65.000
 43.120      65.000
 43.130      65.000
 43.140      65.000
 43.150      65.000
 43.160      65.000
 43.170      65.000
 43.180      65.000
 43.190      65.000
 43.200      65.000
 43.210      65.000
 43.220      65.000
 43.230      65.000
 43.240      65.000
 43.250      65.000
 43.260      65.000
 43.270      65.000
 43.280      65.000
 43.290      65.000
 43.300      65.000
 43.310      65.000
 43.320      65.000
 43.330      65.000
 43.340      65.000
 43.350      65.000
 43.360      65.000
 43.370      65.000
 43.380      65.000
 43.390      65.000
 43.400      65.000
 43.410      65.000
 43.420      65.000
 43.430      65.000
 43.440      65.000
 43.450      65.000
 43.460      65.000
 43.470      65.000
 43.480      65.000
 43.490      65.000
 43.500      65.000
 43.510      65.000
 43.520      65.000
 43.530      65.000
 43.540      65.000
 43.550      65.000
 43.560      65.000
 43.570      65.000
 43.580      65.000
 43.590      65.000
 43.600      65.000
 43.610      65.000
 43.620      65.000
 43.630      65.000
 43.640      65.000
 43.650      65.000
 43.660      65.000
 43.670      65.000
 43.681      65.000
 43.691      65.000
 43.701      65.000
 43.711      65.000
 43.721      65.000
 43.731      65.000
 43.741      65.000
 43.751      65.000
 43.761      65.000
 43.771      65.000
 43.781      65.000
 43.791      65.000
 43.801      65.000
 43.811      65.000
 43.821      65.000
 43.831      65.000
 43.841      65.000
 43.851      65.000
 43.861      65.000
 43.871      65.000
 43.881      65.000
 43.891      65.000
 43.901      65.000
 43.911      65.000
 43.921      65.000
 43.931      65.000
 43.941      65.000
 43.951      65.000
 43.961      65.000
 43.971      65.000
 43.981      65.000
 43.991      65.000
 44.001      65.000
 44.011      65.000
 44.021      65.000
 44.031      65.000
 44.041      65.000
 44.051      65.000
 44.061      65.000
 44.071      65.000
 44.081      65.000
 44.091      65.000
 44.101      65.000
 44.111      65.000
 44.121      65.000
 44.131      65.000
 44.141      65.000
 44.151      65.000
 44.161      65.000
 44.171      65.000
 44.181      65.000
 44.191      65.000
 44.201      65.000
 44.211      65.000
 44.221      65.000
 44.232      65.000
 44.242      65.000
 44.252      65.000
 44.262      65.000
 44.272      65.000
 44.282      65.000
 44.292      65.000
 44.302      65.000
 44.312      65.000
 44.322      65.000
 44.332      65.000
 44.342      65.000
 44.352      65.000
 44.362      65.000
 44.372      65.000
 44.382      65.000
 44.392      65.000
 44.402      65.000
 44.412      65.000
 44.422      65.000
 44.432      65.000
 44.442      65.000
 44.452      65.000
 44.462      65.000
 44.472      65.000
 44.482      65.000
 44.492      65.000
 44.502      65.000
 44.512      65.000
 44.522      65.000
 44.532      65.000
 44.542      65.000
 44.552      65.000
 44.562      65.000
 44.572      65.000
 44.582      65.000
 44.592      65.000
 44.602      65.000
 44.612      65.000
 44.622      65.000
 44.632      65.000
 44.642      65.000
 44.652      65.000
 44.662      65.000
 44.672      65.000
 44.682      65.000
 44.692      65.000
 44.702      65.000
 44.712      65.000
 44.722      65.000
 44.732      65.000
 44.742      65.000
 44.752      65.000
 44.762      65.000
 44.772      65.000
 44.782      65.000
 44.793      65.000
 44.803      65.000
 44.813      65.000
 44.823      65.000
 44.833      65.000
 44.843      65.000
 44.853      65.000
 44.863      65.000
 44.873      65.000
 44.883      65.000
 44.893      65.000
 44.903      65.000
 44.913      65.000
 44.923      65.000
 44.933      65.000
 44.943      65.000
 44.953      65.000
 44.963      65.000
 44.973      65.000
 44.983      65.000
 44.993      65.000
 45.003      65.000
 45.013      65.000
 45.023      65.000
 45.033      65.000
 45.043      65.000
 45.053      65.000
 45.063      65.000
 45.073      65.000
 45.083      65.000
 45.093      65.000
 45.103      65.000
 45.113      65.000
 45.123      65.000
 45.133      65.000
 45.143      65.000
 45.153      65.000
 45.163      65.000
 45.173      65.000
 45.183      65.000
 45.193      65.000
 45.203      65.000
 45.213      65.000
 45.223      65.000
 45.233      65.000
 45.243      65.000
 45.253      65.000
 45.263      65.000
 45.273      65.000
 45.283      65.000
 45.293      65.000
 45.303      65.000
 45.313      65.000
 45.323      65.000
 45.333      65.000
 45.344      65.000
 45.354      65.000
 45.364      65.000
 45.374      65.000
 45.384      65.000
 45.394      65.000
 45.404      65.000
 45.414      65.000
 45.424      65.000
 45.434      65.000
 45.444      65.000
 45.454      65.000
 45.464      65.000
 45.474      65.000
 45.484      65.000
 45.494      65.000
 45.504      65.000
 45.514      65.000
 45.524      65.000
 45.534      65.000
 45.544      65.000
 45.554      65.000
 45.564      65.000
 45.574      65.000
 45.584      65.000
 45.594      65.000
 45.604      65.000
 45.614      65.000
 45.624      65.000
 45.634      65.000
 45.644      65.000
 45.654      65.000
 45.664      65.000
 45.674      65.000
 45.684      65.000
 45.694      65.000
 45.704      65.000
 45.714      65.000
 45.724      65.000
 45.734      65.000
 45.744      65.000
 45.754      65.000
 45.764      65.000
 45.774      65.000
 45.784      65.000
 45.794      65.000
 45.804      65.000
 45.814      65.000
 45.824      65.000
 45.834      65.000
 45.844      65.000
 45.854      65.000
 45.864      65.000
 45.874      65.000
 45.884      65.000
 45.894      65.000
 45.905      65.000
 45.915      65.000
 45.925      65.000
 45.935      65.000
 45.945      65.000
 45.955      65.000
 45.965      65.000
 45.975      65.000
 45.985      65.000
 45.995      65.000
 46.005      65.000
 46.015      65.000
 46.025      65.000
 46.035      65.000
 46.045      65.000
 46.055      65.000
 46.065      65.000
 46.075      65.000
 46.085      65.000
 46.095      65.000
 46.105      65.000
 46.115      65.000
 46.125      65.000
 46.135      65.000
 46.145      65.000
 46.155      65.000
 46.165      65.000
 46.175      65.000
 46.185      65.000
 46.195      65.000
 46.205      65.000
 46.215      65.000
 46.225      65.000
 46.235      65.000
 46.245      65.000
 46.255      65.000
 46.265      65.000
 46.275      65.000
 46.285      65.000
 46.295      65.000
 46.305      65.000
 46.315      65.000
 46.325      65.000
 46.335      65.000
 46.345      65.000
 46.355      65.000
 46.365      65.000
 46.375      65.000
 46.385      65.000
 46.395      65.000
 46.405      65.000
 46.415      65.000
 46.425      65.000
 46.435      65.000
 46.445      65.000
 46.456      65.000
 46.466      65.000
 46.476      65.000
 46.486      65.000
 46.496      65.000
 46.506      65.000
 46.516      65.000
 46.526      65.000
 46.536      65.000
 46.546      65.000
 46.556      65.000
 46.566      65.000
 46.576      65.000
 46.586      65.000
 46.596      65.000
 46.606      65.000
 46.616      65.000
 46.626      65.000
 46.636      65.000
 46.646      65.000
 46.656      65.000
 46.666      65.000
 46.676      65.000
 46.686      65.000
 46.696      65.000
 46.706      65.000
 46.716      65.000
 46.726      65.000
 46.736      65.000
 46.746      65.000
 46.756      65.000
 46.766      65.000
 46.776      65.000
 46.786      65.000
 46.796      65.000
 46.806      65.000
 46.816      65.000
 46.826      65.000
 46.836      65.000
 46.846      65.000
 46.856      65.000
 46.866      65.000
 46.876      65.000
 46.886      65.000
 46.896      65.000
 46.906      65.000
 46.916      65.000
 46.926      65.000
 46.936      65.000
 46.946      65.000
 46.956      65.000
 46.966      65.000
 46.976      65.000
 46.986      65.000
 46.996      65.000
 47.006      65.000
 47.017      65.000
 47.027      65.000
 47.037      65.000
 47.047      65.000
 47.057      65.000
 47.067      65.000
 47.077      65.000
 47.087      65.000
 47.097      65.000
 47.107      65.000
 47.117      65.000
 47.127      65.000
 47.137      65.000
 47.147      65.000
 47.157      65.000
 47.167      65.000
 47.177      65.000
 47.187      65.000
 47.197      65.000
 47.207      65.000
 47.217      65.000
 47.227      65.000
 47.237      65.000
 47.247      65.000
 47.257      65.000
 47.267      65.000
 47.277      65.000
 47.287      65.000
 47.297      65.000
 47.307      65.000
 47.317      65.000
 47.327      65.000
 47.337      65.000
 47.347      65.000
 47.357      65.000
 47.367      65.000
 47.377      65.000
 47.387      65.000
 47.397      65.000
 47.407      65.000
 47.417      65.000
 47.427      65.000
 47.437      65.000
 47.447      65.000
 47.457      65.000
 47.467      65.000
 47.477      65.000
 47.487      65.000
 47.497      65.000
 47.507      65.000
 47.517      65.000
 47.527      65.000
 47.537      65.000
 47.547      65.000
 47.557      65.000
 47.568      65.000
 47.578      65.000
 47.588      65.000
 47.598      65.000
 47.608      65.000
 47.618      65.000
 47.628      65.000
 47.638      65.000
 47.648      65.000
 47.658      65.000
 47.668      65.000
 47.678      65.000
 47.688      65.000
 47.698      65.000
 47.708      65.000
 47.718      65.000
 47.728      65.000
 47.738      65.000
 47.748      65.000
 47.758      65.000
 47.768      65.000
 47.778      65.000
 47.788      65.000
 47.798      65.000
 47.808      65.000
 47.818      65.000
 47.828      65.000
 47.838      65.000
 47.848      65.000
 47.858      65.000
 47.868      65.000
 47.878      65.000
 47.888      65.000
 47.898      65.000
 47.908      65.000
 47.918      65.000
 47.928      65.000
 47.938      65.000
 47.948      65.000
 47.958      65.000
 47.968      65.000
 47.978      65.000
 47.988      65.000
 47.998      65.000
 48.008      65.000
 48.018      65.000
 48.028      65.000
 48.038      65.000
 48.048      65.000
 48.058      65.000
 48.068      65.000
 48.078      65.000
 48.088      65.000
 48.098      65.000
 48.108      65.000
 48.118      65.000
 48.129      65.000
 48.139      65.000
 48.149      65.000
 48.159      65.000
 48.169      65.000
 48.179      65.000
 48.189      65.000
 48.199      65.000
 48.209      65.000
 48.219      65.000
 48.229      65.000
 48.239      65.000
 48.249      65.000
 48.259      65.000
 48.269      65.000
 48.279      65.000
 48.289      65.000
 48.299      65.000
 48.309      65.000
 48.319      65.000
 48.329      65.000
 48.339      65.000
 48.349      65.000
 48.359      65.000
 48.369      65.000
 48.379      65.000
 48.389      65.000
 48.399      65.000
 48.409      65.000
 48.419      65.000
 48.429      65.000
 48.439      65.000
 48.449      65.000
 48.459      65.000
 48.469      65.000
 48.479      65.000
 48.489      65.000
 48.499      65.000
 48.509      65.000
 48.519      65.000
 48.529      65.000
 48.539      65.000
 48.549      65.000
 48.559      65.000
 48.569      65.000
 48.579      65.000
 48.589      65.000
 48.599      65.000
 48.609      65.000
 48.619      65.000
 48.629      65.000
 48.639      65.000
 48.649      65.000
 48.659      65.000
 48.669      65.000
 48.679      65.000
 48.690      65.000
 48.700      65.000
 48.710      65.000
 48.720      65.000
 48.730      65.000
 48.740      65.000
 48.750      65.000
 48.760      65.000
 48.770      65.000
 48.780      65.000
 48.790      65.000
 48.800      65.000
 48.810      65.000
 48.820      65.000
 48.830      65.000
 48.840      65.000
 48.850      65.000
 48.860      65.000
 48.870      65.000
 48.880      65.000
 48.890      65.000
 48.900      65.000
 48.910      65.000
 48.920      65.000
 48.930      65.000
 48.940      65.000
 48.950      65.000
 48.960      65.000
 48.970      65.000
 48.980      65.000
 48.990      65.000
 49.000      65.000
 49.010      65.000
 49.020      65.000
 49.030      65.000
 49.040      65.000
 49.050      65.000
 49.060      65.000
 49.070      65.000
 49.080      65.000
 49.090      65.000
 49.100      65.000
 49.110      65.000
 49.120      65.000
 49.130      65.000
 49.140      65.000
 49.150      65.000
 49.160      65.000
 49.170      65.000
 49.180      65.000
 49.190      65.000
 49.200      65.000
 49.210      65.000
 49.220      65.000
 49.230      65.000
 49.241      65.000
 49.251      65.000
 49.261      65.000
 49.271      65.000
 49.281      65.000
 49.291      65.000
 49.301      65.000
 49.311      65.000
 49.321      65.000
 49.331      65.000
 49.341      65.000
 49.351      65.000
 49.361      65.000
 49.371      65.000
 49.381      65.000
 49.391      65.000
 49.401      65.000
 49.411      65.000
 49.421      65.000
 49.431      65.000
 49.441      65.000
 49.451      65.000
 49.461      65.000
 49.471      65.000
 49.481      65.000
 49.491      65.000
 49.501      65.000
 49.511      65.000
 49.521      65.000
 49.531      65.000
 49.541      65.000
 49.551      65.000
 49.561      65.000
 49.571      65.000
 49.581      65.000
 49.591      65.000
 49.601      65.000
 49.611      65.000
 49.621      65.000
 49.631      65.000
 49.641      65.000
 49.651      65.000
 49.661      65.000
 49.671      65.000
 49.681      65.000
 49.691      65.000
 49.701      65.000
 49.711      65.000
 49.721      65.000
 49.731      65.000
 49.741      65.000
 49.751      65.000
 49.761      65.000
 49.771      65.000
 49.781      65.000
 49.791      65.000
 49.802      65.000
 49.812      65.000
 49.822      65.000
 49.832      65.000
 49.842      65.000
 49.852      65.000
 49.862      65.000
 49.872      65.000
 49.882      65.000
 49.892      65.000
 49.902      65.000
 49.912      65.000
 49.922      65.000
 49.932      65.000
 49.942      65.000
 49.952      65.000
 49.962      65.000
 49.972      65.000
 49.982      65.000
 49.992      65.000
 50.002      65.000
 50.012      65.000
 50.022      65.000
 50.032      65.000
 50.042      65.000
 50.052      65.000
 50.062      65.000
 50.072      65.000
 50.082      65.000
 50.092      65.000
 50.102      65.000
 50.112      65.000
 50.122      65.000
 50.132      65.000
 50.142      65.000
 50.152      65.000
 50.162      65.000
 50.172      65.000
 50.182      65.000
 50.192      65.000
 50.202      65.000
 50.212      65.000
 50.222      65.000
 50.232      65.000
 50.242      65.000
 50.252      65.000
 50.262      65.000
 50.272      65.000
 50.282      65.000
 50.292      65.000
 50.302      65.000
 50.312      65.000
 50.322      65.000
 50.332      65.000
 50.342      65.000
 50.353      65.000
 50.363      65.000
 50.373      65.000
 50.383      65.000
 50.393      65.000
 50.403      65.000
 50.413      65.000
 50.423      65.000
 50.433      65.000
 50.443      65.000
 50.453      65.000
 50.463      65.000
 50.473      65.000
 50.483      65.000
 50.493      65.000
 50.503      65.000
 50.513      65.000
 50.523      65.000
 50.533      65.000
 50.543      65.000
 50.553      65.000
 50.563      65.000
 50.573      65.000
 50.583      65.000
 50.593      65.000
 50.603      65.000
 50.613      65.000
 50.623      65.000
 50.633      65.000
 50.643      65.000
 50.653      65.000
 50.663      65.000
 50.673      65.000
 50.683      65.000
 50.693      65.000
 50.703      65.000
 50.713      65.000
 50.723      65.000
 50.733      65.000
 50.743      65.000
 50.753      65.000
 50.763      65.000
 50.773      65.000
 50.783      65.000
 50.793      65.000
 50.803      65.000
 50.813      65.000
 50.823      65.000
 50.833      65.000
 50.843      65.000
 50.853      65.000
 50.863      65.000
 50.873      65.000
 50.883      65.000
 50.893      65.000
 50.903      65.000
 50.914      65.000
 50.924      65.000
 50.934      65.000
 50.944      65.000
 50.954      65.000
 50.964      65.000
 50.974      65.000
 50.984      65.000
 50.994      65.000
 51.004      65.000
 51.014      65.000
 51.024      65.000
 51.034      65.000
 51.044      65.000
 51.054      65.000
 51.064      65.000
 51.074      65.000
 51.084      65.000
 51.094      65.000
 51.104      65.000
 51.114      65.000
 51.124      65.000
 51.134      65.000
 51.144      65.000
 51.154      65.000
 51.164      65.000
 51.174      65.000
 51.184      65.000
 51.194      65.000
 51.204      65.000
 51.214      65.000
 51.224      65.000
 51.234      65.000
 51.244      65.000
 51.254      65.000
 51.264      65.000
 51.274      65.000
 51.284      65.000
 51.294      65.000
 51.304      65.000
 51.314      65.000
 51.324      65.000
 51.334      65.000
 51.344      65.000
 51.354      65.000
 51.364      65.000
 51.374      65.000
 51.384      65.000
 51.394      65.000
 51.404      65.000
 51.414      65.000
 51.424      65.000
 51.434      65.000
 51.444      65.000
 51.454      65.000
 51.465      65.000
 51.475      65.000
 51.485      65.000
 51.495      65.000
 51.505      65.000
 51.515      65.000
 51.525      65.000
 51.535      65.000
 51.545      65.000
 51.555      65.000
 51.565      65.000
 51.575      65.000
 51.585      65.000
 51.595      65.000
 51.605      65.000
 51.615      65.000
 51.625      65.000
 51.635      65.000
 51.645      65.000
 51.655      65.000
 51.665      65.000
 51.675      65.000
 51.685      65.000
 51.695      65.000
 51.705      65.000
 51.715      65.000
 51.725      65.000
 51.735      65.000
 51.745      65.000
 51.755      65.000
 51.765      65.000
 51.775      65.000
 51.785      65.000
 51.795      65.000
 51.805      65.000
 51.815      65.000
 51.825      65.000
 51.835      65.000
 51.845      65.000
 51.855      65.000
 51.865      65.000
 51.875      65.000
 51.885      65.000
 51.895      65.000
 51.905      65.000
 51.915      65.000
 51.925      65.000
 51.935      65.000
 51.945      65.000
 51.955      65.000
 51.965      65.000
 51.975      65.000
 51.985      65.000
 51.995      65.000
 52.005      65.000
 52.015      65.000
 52.026      65.000
 52.036      65.000
 52.046      65.000
 52.056      65.000
 52.066      65.000
 52.076      65.000
 52.086      65.000
 52.096      65.000
 52.106      65.000
 52.116      65.000
 52.126      65.000
 52.136      65.000
 52.146      65.000
 52.156      65.000
 52.166      65.000
 52.176      65.000
 52.186      65.000
 52.196      65.000
 52.206      65.000
 52.216      65.000
 52.226      65.000
 52.236      65.000
 52.246      65.000
 52.256      65.000
 52.266      65.000
 52.276      65.000
 52.286      65.000
 52.296      65.000
 52.306      65.000
 52.316      65.000
 52.326      65.000
 52.336      65.000
 52.346      65.000
 52.356      65.000
 52.366      65.000
 52.376      65.000
 52.386      65.000
 52.396      65.000
 52.406      65.000
 52.416      65.000
 52.426      65.000
 52.436      65.000
 52.446      65.000
 52.456      65.000
 52.466      65.000
 52.476      65.000
 52.486      65.000
 52.496      65.000
 52.506      65.000
 52.516      65.000
 52.526      65.000
 52.536      65.000
 52.546      65.000
 52.556      65.000
 52.566      65.000
 52.576      65.000
 52.587      65.000
 52.597      65.000
 52.607      65.000
 52.617      65.000
 52.627      65.000
 52.637      65.000
 52.647      65.000
 52.657      65.000
 52.667      65.000
 52.677      65.000
 52.687      65.000
 52.697      65.000
 52.707      65.000
 52.717      65.000
 52.727      65.000
 52.737      65.000
 52.747      65.000
 52.757      65.000
 52.767      65.000
 52.777      65.000
 52.787      65.000
 52.797      65.000
 52.807      65.000
 52.817      65.000
 52.827      65.000
 52.837      65.000
 52.847      65.000
 52.857      65.000
 52.867      65.000
 52.877      65.000
 52.887      65.000
 52.897      65.000
 52.907      65.000
 52.917      65.000
 52.927      65.000
 52.937      65.000
 52.947      65.000
 52.957      65.000
 52.967      65.000
 52.977      65.000
 52.987      65.000
 52.997      65.000
 53.007      65.000
 53.017      65.000
 53.027      65.000
 53.037      65.000
 53.047      65.000
 53.057      65.000
 53.067      65.000
 53.077      65.000
 53.087      65.000
 53.097      65.000
 53.107      65.000
 53.117      65.000
 53.127      65.000
 53.138      65.000
 53.148      65.000
 53.158      65.000
 53.168      65.000
 53.178      65.000
 53.188      65.000
 53.198      65.000
 53.208      65.000
 53.218      65.000
 53.228      65.000
 53.238      65.000
 53.248      65.000
 53.258      65.000
 53.268      65.000
 53.278      65.000
 53.288      65.000
 53.298      65.000
 53.308      65.000
 53.318      65.000
 53.328      65.000
 53.338      65.000
 53.348      65.000
 53.358      65.000
 53.368      65.000
 53.378      65.000
 53.388      65.000
 53.398      65.000
 53.408      65.000
 53.418      65.000
 53.428      65.000
 53.438      65.000
 53.448      65.000
 53.458      65.000
 53.468      65.000
 53.478      65.000
 53.488      65.000
 53.498      65.000
 53.508      65.000
 53.518      65.000
 53.528      65.000
 53.538      65.000
 53.548      65.000
 53.558      65.000
 53.568      65.000
 53.578      65.000
 53.588      65.000
 53.598      65.000
 53.608      65.000
 53.618      65.000
 53.628      65.000
 53.638      65.000
 53.648      65.000
 53.658      65.000
 53.668      65.000
 53.678      65.000
 53.688      65.000
 53.699      65.000
 53.709      65.000
 53.719      65.000
 53.729      65.000
 53.739      65.000
 53.749      65.000
 53.759      65.000
 53.769      65.000
 53.779      65.000
 53.789      65.000
 53.799      65.000
 53.809      65.000
 53.819      65.000
 53.829      65.000
 53.839      65.000
 53.849      65.000
 53.859      65.000
 53.869      65.000
 53.879      65.000
 53.889      65.000
 53.899      65.000
 53.909      65.000
 53.919      65.000
 53.929      65.000
 53.939      65.000
 53.949      65.000
 53.959      65.000
 53.969      65.000
 53.979      65.000
 53.989      65.000
 53.999      65.000
 54.009      65.000
 54.019      65.000
 54.029      65.000
 54.039      65.000
 54.049      65.000
 54.059      65.000
 54.069      65.000
 54.079      65.000
 54.089      65.000
 54.099      65.000
 54.109      65.000
 54.119      65.000
 54.129      65.000
 54.139      65.000
 54.149      65.000
 54.159      65.000
 54.169      65.000
 54.179      65.000
 54.189      65.000
 54.199      65.000
 54.209      65.000
 54.219      65.000
 54.229      65.000
 54.239      65.000
 54.250      65.000
 54.260      65.000
 54.270      65.000
 54.280      65.000
 54.290      65.000
 54.300      65.000
 54.310      65.000
 54.320      65.000
 54.330      65.000
 54.340      65.000
 54.350      65.000
 54.360      65.000
 54.370      65.000
 54.380      65.000
 54.390      65.000
 54.400      65.000
 54.410      65.000
 54.420      65.000
 54.430      65.000
 54.440      65.000
 54.450      65.000
 54.460      65.000
 54.470      65.000
 54.480      65.000
 54.490      65.000
 54.500      65.000
 54.510      65.000
 54.520      65.000
 54.530      65.000
 54.540      65.000
 54.550      65.000
 54.560      65.000
 54.570      65.000
 54.580      65.000
 54.590      65.000
 54.600      65.000
 54.610      65.000
 54.620      65.000
 54.630      65.000
 54.640      65.000
 54.650      65.000
 54.660      65.000
 54.670      65.000
 54.680      65.000
 54.690      65.000
 54.700      65.000
 54.710      65.000
 54.720      65.000
 54.730      65.000
 54.740      65.000
 54.750      65.000
 54.760      65.000
 54.770      65.000
 54.780      65.000
 54.790      65.000
 54.800      65.000
 54.811      65.000
 54.821      65.000
 54.831      65.000
 54.841      65.000
 54.851      65.000
 54.861      65.000
 54.871      65.000
 54.881      65.000
 54.891      65.000
 54.901      65.000
 54.911      65.000
 54.921      65.000
 54.931      65.000
 54.941      65.000
 54.951      65.000
 54.961      65.000
 54.971      65.000
 54.981      65.000
 54.991      65.000
 55.001      65.000
 55.011      65.000
 55.021      65.000
 55.031      65.000
 55.041      65.000
 55.051      65.000
 55.061      65.000
 55.071      65.000
 55.081      65.000
 55.091      65.000
 55.101      65.000
 55.111      65.000
 55.121      65.000
 55.131      65.000
 55.141      65.000
 55.151      65.000
 55.161      65.000
 55.171      65.000
 55.181      65.000
 55.191      65.000
 55.201      65.000
 55.211      65.000
 55.221      65.000
 55.231      65.000
 55.241      65.000
 55.251      65.000
 55.261      65.000
 55.271      65.000
 55.281      65.000
 55.291      65.000
 55.301      65.000
 55.311      65.000
 55.321      65.000
 55.331      65.000
 55.341      65.000
 55.351      65.000
 55.362      65.000
 55.372      65.000
 55.382      65.000
 55.392      65.000
 55.402      65.000
 55.412      65.000
 55.422      65.000
 55.432      65.000
 55.442      65.000
 55.452      65.000
 55.462      65.000
 55.472      65.000
 55.482      65.000
 55.492      65.000
 55.502      65.000
 55.512      65.000
 55.522      65.000
 55.532      65.000
 55.542      65.000
 55.552      65.000
 55.562      65.000
 55.572      65.000
 55.582      65.000
 55.592      65.000
 55.602      65.000
 55.612      65.000
 55.622      65.000
 55.632      65.000
 55.642      65.000
 55.652      65.000
 55.662      65.000
 55.672      65.000
 55.682      65.000
 55.692      65.000
 55.702      65.000
 55.712      65.000
 55.722      65.000
 55.732      65.000
 55.742      65.000
 55.752      65.000
 55.762      65.000
 55.772      65.000
 55.782      65.000
 55.792      65.000
 55.802      65.000
 55.812      65.000
 55.822      65.000
 55.832      65.000
 55.842      65.000
 55.852      65.000
 55.862      65.000
 55.872      65.000
 55.882      65.000
 55.892      65.000
 55.902      65.000
 55.912      65.000
 55.923      65.000
 55.933      65.000
 55.943      65.000
 55.953      65.000
 55.963      65.000
 55.973      65.000
 55.983      65.000
 55.993      65.000
 56.003      65.000
 56.013      65.009
 56.023      65.016
 56.033      65.029
 56.043      65.052
 56.053      65.091
 56.063      65.157
 56.073      65.265
 56.083      65.440
 56.093      65.717
 56.103      66.146
 56.113      66.799
 56.123      67.769
 56.133      69.185
 56.143      71.206
 56.153      74.035
 56.163      77.907
 56.173      83.096
 56.183      89.900
 56.193      98.626
 56.203     109.568
 56.213     122.979
 56.223     139.018
 56.233     157.740
 56.243     179.041
 56.253     202.632
 56.263     228.020
 56.273     254.517
 56.283     281.218
 56.293     307.103
 56.303     331.055
 56.313     351.950
 56.323     368.742
 56.333     380.548
 56.343     386.731
 56.353     386.942
 56.363     381.174
 56.373     369.746
 56.383     353.279
 56.393     332.640
 56.403     308.858
 56.413     283.071
 56.423     256.392
 56.433     229.859
 56.443     204.369
 56.453     180.633
 56.463     159.151
 56.474     140.242
 56.484     124.015
 56.494     110.429
 56.504      99.321
 56.514      90.448
 56.524      83.516
 56.534      78.224
 56.544      74.269
 56.554      71.377
 56.564      69.305
 56.574      67.853
 56.584      66.855
 56.594      66.184
 56.604      65.742
 56.614      65.456
 56.624      65.275
 56.634      65.163
 56.644      65.095
 56.654      65.054
 56.664      65.030
 56.674      65.017
 56.684      65.009
 56.694      65.000
 56.704      65.000
 56.714      65.000
 56.724      65.000
 56.734      65.000
 56.744      65.000
 56.754      65.000
 56.764      65.000
 56.774      65.000
 56.784      65.000
 56.794      65.000
 56.804      65.000
 56.814      65.000
 56.824      65.000
 56.834      65.000
 56.844      65.000
 56.854      65.000
 56.864      65.000
 56.874      65.000
 56.884      65.000
 56.894      65.000
 56.904      65.000
 56.914      65.000
 56.924      65.000
 56.934      65.000
 56.944      65.000
 56.954      65.000
 56.964      65.000
 56.974      65.000
 56.984      65.000
 56.994      65.000
 57.004      65.000
 57.014      65.000
 57.024      65.000
 57.035      65.000
 57.045      65.000
 57.055      65.000
 57.065      65.000
 57.075      65.000
 57.085      65.000
 57.095      65.000
 57.105      65.000
 57.115      65.000
 57.125      65.000
 57.135      65.000
 57.145      65.000
 57.155      65.000
 57.165      65.000
 57.175      65.000
 57.185      65.000
 57.195      65.000
 57.205      65.000
 57.215      65.000
 57.225      65.000
 57.235      65.000
 57.245      65.000
 57.255      65.000
 57.265      65.000
 57.275      65.000
 57.285      65.000
 57.295      65.000
 57.305      65.000
 57.315      65.000
 57.325      65.000
 57.335      65.000
 57.345      65.000
 57.355      65.000
 57.365      65.000
 57.375      65.000
 57.385      65.000
 57.395      65.000
 57.405      65.000
 57.415      65.000
 57.425      65.000
 57.435      65.000
 57.445      65.000
 57.455      65.000
 57.465      65.000
 57.475      65.000
 57.485      65.000
 57.495      65.000
 57.505      65.000
 57.515      65.000
 57.525      65.000
 57.535      65.000
 57.545      65.000
 57.555      65.000
 57.565      65.000
 57.575      65.000
 57.585      65.000
 57.596      65.000
 57.606      65.000
 57.616      65.000
 57.626      65.000
 57.636      65.000
 57.646      65.000
 57.656      65.000
 57.666      65.000
 57.676      65.000
 57.686      65.000
 57.696      65.000
 57.706      65.000
 57.716      65.000
 57.726      65.000
 57.736      65.000
 57.746      65.000
 57.756      65.000
 57.766      65.000
 57.776      65.000
 57.786      65.000
 57.796      65.000
 57.806      65.000
 57.816      65.000
 57.826      65.000
 57.836      65.000
 57.846      65.000
 57.856      65.000
 57.866      65.000
 57.876      65.000
 57.886      65.000
 57.896      65.000
 57.906      65.000
 57.916      65.000
 57.926      65.000
 57.936      65.000
 57.946      65.000
 57.956      65.000
 57.966      65.000
 57.976      65.000
 57.986      65.000
 57.996      65.000
 58.006      65.000
 58.016      65.000
 58.026      65.000
 58.036      65.000
 58.046      65.000
 58.056      65.000
 58.066      65.000
 58.076      65.000
 58.086      65.000
 58.096      65.000
 58.106      65.000
 58.116      65.000
 58.126      65.000
 58.136      65.000
 58.147      65.000
 58.157      65.000
 58.167      65.000
 58.177      65.000
 58.187      65.000
 58.197      65.000
 58.207      65.000
 58.217      65.000
 58.227      65.000
 58.237      65.000
 58.247      65.000
 58.257      65.000
 58.267      65.000
 58.277      65.000
 58.287      65.000
 58.297      65.000
 58.307      65.000
 58.317      65.000
 58.327      65.000
 58.337      65.000
 58.347      65.000
 58.357      65.000
 58.367      65.000
 58.377      65.000
 58.387      65.000
 58.397      65.000
 58.407      65.000
 58.417      65.000
 58.427      65.000
 58.437      65.000
 58.447      65.000
 58.457      65.000
 58.467      65.000
 58.477      65.000
 58.487      65.000
 58.497      65.000
 58.507      65.000
 58.517      65.000
 58.527      65.000
 58.537      65.000
 58.547      65.000
 58.557      65.000
 58.567      65.000
 58.577      65.000
 58.587      65.000
 58.597      65.000
 58.607      65.000
 58.617      65.000
 58.627      65.000
 58.637      65.000
 58.647      65.000
 58.657      65.000
 58.667      65.000
 58.677      65.000
 58.687      65.000
 58.697      65.000
 58.708      65.000
 58.718      65.000
 58.728      65.000
 58.738      65.000
 58.748      65.000
 58.758      65.000
 58.768      65.000
 58.778      65.000
 58.788      65.000
 58.798      65.000
 58.808      65.000
 58.818      65.000
 58.828      65.000
 58.838      65.000
 58.848      65.000
 58.858      65.000
 58.868      65.000
 58.878      65.000
 58.888      65.000
 58.898      65.000
 58.908      65.000
 58.918      65.000
 58.928      65.000
 58.938      65.000
 58.948      65.000
 58.958      65.000
 58.968      65.000
 58.978      65.000
 58.988      65.000
 58.998      65.000
 59.008      65.000
 59.018      65.000
 59.028      65.000
 59.038      65.000
 59.048      65.000
 59.058      65.000
 59.068      65.000
 59.078      65.000
 59.088      65.000
 59.098      65.000
 59.108      65.000
 59.118      65.000
 59.128      65.000
 59.138      65.000
 59.148      65.000
 59.158      65.000
 59.168      65.000
 59.178      65.000
 59.188      65.000
 59.198      65.000
 59.208      65.000
 59.218      65.000
 59.228      65.000
 59.238      65.000
 59.248      65.000
 59.259      65.000
 59.269      65.000
 59.279      65.000
 59.289      65.000
 59.299      65.000
 59.309      65.000
 59.319      65.000
 59.329      65.000
 59.339      65.000
 59.349      65.000
 59.359      65.000
 59.369      65.000
 59.379      65.000
 59.389      65.000
 59.399      65.000
 59.409      65.000
 59.419      65.000
 59.429      65.000
 59.439      65.000
 59.449      65.000
 59.459      65.000
 59.469      65.000
 59.479      65.000
 59.489      65.000
 59.499      65.000
 59.509      65.000
 59.519      65.000
 59.529      65.000
 59.539      65.000
 59.549      65.000
 59.559      65.000
 59.569      65.000
 59.579      65.000
 59.589      65.000
 59.599      65.000
 59.609      65.000
 59.619      65.000
 59.629      65.000
 59.639      65.000
 59.649      65.000
 59.659      65.000
 59.669      65.000
 59.679      65.000
 59.689      65.000
 59.699      65.000
 59.709      65.000
 59.719      65.000
 59.729      65.000
 59.739      65.000
 59.749      65.000
 59.759      65.000
 59.769      65.000
 59.779      65.000
 59.789      65.000
 59.799      65.000
 59.809      65.000
 59.820      65.000
 59.830      65.000
 59.840      65.000
 59.850      65.000
 59.860      65.000
 59.870      65.000
 59.880      65.000
 59.890      65.000
 59.900      65.000
 59.910      65.000
 59.920      65.000
 59.930      65.000
 59.940      65.000
 59.950      65.000
 59.960      65.000
 59.970      65.000
 59.980      65.000
 59.990      65.000
 60.000      65.000
 60.010      65.000
 60.020      65.000
 60.030      65.000
 60.040      65.000
 60.050      65.000
 60.060      65.000
 60.070      65.000
 60.080      65.000
 60.090      65.000
 60.100      65.000
 60.110      65.000
 60.120      65.000
 60.130      65.000
 60.140      65.000
 60.150      65.000
 60.160      65.000
 60.170      65.000
 60.180      65.000
 60.190      65.000
 60.200      65.000
 60.210      65.000
 60.220      65.000
 60.230      65.000
 60.240      65.000
 60.250      65.000
 60.260      65.000
 60.270      65.000
 60.280      65.000
 60.290      65.000
 60.300      65.000
 60.310      65.000
 60.320      65.000
 60.330      65.000
 60.340      65.000
 60.350      65.000
 60.360      65.000
 60.371      65.000
 60.381      65.000
 60.391      65.000
 60.401      65.000
 60.411      65.000
 60.421      65.000
 60.431      65.000
 60.441      65.000
 60.451      65.000
 60.461      65.000
 60.471      65.000
 60.481      65.000
 60.491      65.000
 60.501      65.000
 60.511      65.000
 60.521      65.000
 60.531      65.000
 60.541      65.000
 60.551      65.000
 60.561      65.000
 60.571      65.000
 60.581      65.000
 60.591      65.000
 60.601      65.000
 60.611      65.000
 60.621      65.000
 60.631      65.000
 60.641      65.000
 60.651      65.000
 60.661      65.000
 60.671      65.000
 60.681      65.000
 60.691      65.000
 60.701      65.000
 60.711      65.000
 60.721      65.000
 60.731      65.000
 60.741      65.000
 60.751      65.000
 60.761      65.000
 60.771      65.000
 60.781      65.000
 60.791      65.000
 60.801      65.000
 60.811      65.000
 60.821      65.000
 60.831      65.000
 60.841      65.000
 60.851      65.000
 60.861      65.000
 60.871      65.000
 60.881      65.000
 60.891      65.000
 60.901      65.000
 60.911      65.000
 60.921      65.000
 60.932      65.000
 60.942      65.000
 60.952      65.000
 60.962      65.000
 60.972      65.000
 60.982      65.000
 60.992      65.000
 61.002      65.000
 61.012      65.000
 61.022      65.000
 61.032      65.000
 61.042      65.000
 61.052      65.000
 61.062      65.000
 61.072      65.000
 61.082      65.000
 61.092      65.000
 61.102      65.000
 61.112      65.000
 61.122      65.000
 61.132      65.000
 61.142      65.000
 61.152      65.000
 61.162      65.000
 61.172      65.000
 61.182      65.000
 61.192      65.000
 61.202      65.000
 61.212      65.000
 61.222      65.000
 61.232      65.000
 61.242      65.000
 61.252      65.000
 61.262      65.000
 61.272      65.000
 61.282      65.000
 61.292      65.000
 61.302      65.000
 61.312      65.000
 61.322      65.000
 61.332      65.000
 61.342      65.000
 61.352      65.000
 61.362      65.000
 61.372      65.000
 61.382      65.000
 61.392      65.000
 61.402      65.000
 61.412      65.000
 61.422      65.000
 61.432      65.000
 61.442      65.000
 61.452      65.000
 61.462      65.000
 61.472      65.000
 61.483      65.000
 61.493      65.000
 61.503      65.000
 61.513      65.000
 61.523      65.000
 61.533      65.000
 61.543      65.000
 61.553      65.000
 61.563      65.000
 61.573      65.000
 61.583      65.000
 61.593      65.000
 61.603      65.000
 61.613      65.000
 61.623      65.000
 61.633      65.000
 61.643      65.000
 61.653      65.000
 61.663      65.000
 61.673      65.000
 61.683      65.000
 61.693      65.000
 61.703      65.000
 61.713      65.000
 61.723      65.000
 61.733      65.000
 61.743      65.000
 61.753      65.000
 61.763      65.000
 61.773      65.000
 61.783      65.000
 61.793      65.000
 61.803      65.000
 61.813      65.000
 61.823      65.000
 61.833      65.000
 61.843      65.000
 61.853      65.000
 61.863      65.000
 61.873      65.000
 61.883      65.000
 61.893      65.000
 61.903      65.000
 61.913      65.000
 61.923      65.000
 61.933      65.000
 61.943      65.000
 61.953      65.000
 61.963      65.000
 61.973      65.000
 61.983      65.000
 61.993      65.000
 62.003      65.000
 62.013      65.000
 62.023      65.000
 62.033      65.000
 62.044      65.000
 62.054      65.000
 62.064      65.000
 62.074      65.000
 62.084      65.000
 62.094      65.000
 62.104      65.000
 62.114      65.000
 62.124      65.000
 62.134      65.000
 62.144      65.000
 62.154      65.000
 62.164      65.000
 62.174      65.000
 62.184      65.000
 62.194      65.000
 62.204      65.000
 62.214      65.000
 62.224      65.000
 62.234      65.000
 62.244      65.000
 62.254      65.000
 62.264      65.000
 62.274      65.000
 62.284      65.000
 62.294      65.000
 62.304      65.000
 62.314      65.000
 62.324      65.000
 62.334      65.000
 62.344      65.000
 62.354      65.000
 62.364      65.000
 62.374      65.000
 62.384      65.000
 62.394      65.000
 62.404      65.000
 62.414      65.000
 62.424      65.000
 62.434      65.000
 62.444      65.000
 62.454      65.000
 62.464      65.000
 62.474      65.000
 62.484      65.000
 62.494      65.000
 62.504      65.000
 62.514      65.000
 62.524      65.000
 62.534      65.000
 62.544      65.000
 62.554      65.000
 62.564      65.000
 62.574      65.000
 62.584      65.000
 62.595      65.000
 62.605      65.000
 62.615      65.000
 62.625      65.000
 62.635      65.000
 62.645      65.000
 62.655      65.000
 62.665      65.000
 62.675      65.000
 62.685      65.000
 62.695      65.000
 62.705      65.000
 62.715      65.000
 62.725      65.000
 62.735      65.000
 62.745      65.000
 62.755      65.000
 62.765      65.000
 62.775      65.000
 62.785      65.000
 62.795      65.000
 62.805      65.000
 62.815      65.000
 62.825      65.000
 62.835      65.000
 62.845      65.000
 62.855      65.000
 62.865      65.000
 62.875      65.000
 62.885      65.000
 62.895      65.000
 62.905      65.000
 62.915      65.000
 62.925      65.000
 62.935      65.000
 62.945      65.000
 62.955      65.000
 62.965      65.000
 62.975      65.000
 62.985      65.000
 62.995      65.000
 63.005      65.000
 63.015      65.000
 63.025      65.000
 63.035      65.000
 63.045      65.000
 63.055      65.000
 63.065      65.000
 63.075      65.000
 63.085      65.000
 63.095      65.000
 63.105      65.000
 63.115      65.000
 63.125      65.000
 63.135      65.000
 63.145      65.000
 63.156      65.000
 63.166      65.000
 63.176      65.000
 63.186      65.000
 63.196      65.000
 63.206      65.000
 63.216      65.000
 63.226      65.000
 63.236      65.000
 63.246      65.000
 63.256      65.000
 63.266      65.000
 63.276      65.000
 63.286      65.000
 63.296      65.000
 63.306      65.000
 63.316      65.000
 63.326      65.000
 63.336      65.000
 63.346      65.000
 63.356      65.000
 63.366      65.000
 63.376      65.000
 63.386      65.000
 63.396      65.000
 63.406      65.000
 63.416      65.000
 63.426      65.000
 63.436      65.000
 63.446      65.000
 63.456      65.000
 63.466      65.000
 63.476      65.000
 63.486      65.000
 63.496      65.000
 63.506      65.000
 63.516      65.000
 63.526      65.000
 63.536      65.000
 63.546      65.000
 63.556      65.000
 63.566      65.000
 63.576      65.000
 63.586      65.000
 63.596      65.000
 63.606      65.000
 63.616      65.000
 63.626      65.000
 63.636      65.000
 63.646      65.000
 63.656      65.000
 63.666      65.000
 63.676      65.000
 63.686      65.000
 63.696      65.000
 63.706      65.000
 63.717      65.000
 63.727      65.000
 63.737      65.000
 63.747      65.000
 63.757      65.000
 63.767      65.000
 63.777      65.000
 63.787      65.000
 63.797      65.000
 63.807      65.000
 63.817      65.000
 63.827      65.000
 63.837      65.000
 63.847      65.000
 63.857      65.000
 63.867      65.000
 63.877      65.000
 63.887      65.000
 63.897      65.000
 63.907      65.000
 63.917      65.000
 63.927      65.000
 63.937      65.000
 63.947      65.000
 63.957      65.000
 63.967      65.000
 63.977      65.000
 63.987      65.000
 63.997      65.000
 64.007      65.000
 64.017      65.000
 64.027      65.000
 64.037      65.000
 64.047      65.000
 64.057      65.000
 64.067      65.000
 64.077      65.000
 64.087      65.000
 64.097      65.000
 64.107      65.000
 64.117      65.000
 64.127      65.000
 64.137      65.000
 64.147      65.000
 64.157      65.000
 64.167      65.000
 64.177      65.000
 64.187      65.000
 64.197      65.000
 64.207      65.000
 64.217      65.000
 64.227      65.000
 64.237      65.000
 64.247      65.000
 64.257      65.000
 64.268      65.000
 64.278      65.000
 64.288      65.000
 64.298      65.000
 64.308      65.000
 64.318      65.000
 64.328      65.000
 64.338      65.000
 64.348      65.000
 64.358      65.000
 64.368      65.000
 64.378      65.000
 64.388      65.000
 64.398      65.000
 64.408      65.000
 64.418      65.000
 64.428      65.000
 64.438      65.000
 64.448      65.000
 64.458      65.000
 64.468      65.000
 64.478      65.000
 64.488      65.000
 64.498      65.000
 64.508      65.000
 64.518      65.000
 64.528      65.000
 64.538      65.000
 64.548      65.000
 64.558      65.000
 64.568      65.000
 64.578      65.000
 64.588      65.000
 64.598      65.000
 64.608      65.000
 64.618      65.000
 64.628      65.000
 64.638      65.000
 64.648      65.000
 64.658      65.000
 64.668      65.000
 64.678      65.000
 64.688      65.000
 64.698      65.000
 64.708      65.000
 64.718      65.000
 64.728      65.000
 64.738      65.000
 64.748      65.000
 64.758      65.000
 64.768      65.000
 64.778      65.000
 64.788      65.000
 64.798      65.000
 64.808      65.000
 64.818      65.000
 64.829      65.000
 64.839      65.000
 64.849      65.000
 64.859      65.000
 64.869      65.000
 64.879      65.000
 64.889      65.000
 64.899      65.000
 64.909      65.000
 64.919      65.000
 64.929      65.000
 64.939      65.000
 64.949      65.000
 64.959      65.000
 64.969      65.000
 64.979      65.000
 64.989      65.000
 64.999      65.000
 65.009      65.000
 65.019      65.000
 65.029      65.000
 65.039      65.000
 65.049      65.000
 65.059      65.000
 65.069      65.000
 65.079      65.000
 65.089      65.000
 65.099      65.000
 65.109      65.000
 65.119      65.000
 65.129      65.000
 65.139      65.000
 65.149      65.000
 65.159      65.000
 65.169      65.000
 65.179      65.000
 65.189      65.000
 65.199      65.000
 65.209      65.000
 65.219      65.000
 65.229      65.000
 65.239      65.000
 65.249      65.000
 65.259      65.000
 65.269      65.000
 65.279      65.000
 65.289      65.000
 65.299      65.000
 65.309      65.000
 65.319      65.000
 65.329      65.000
 65.339      65.000
 65.349      65.000
 65.359      65.000
 65.369      65.000
 65.380      65.000
 65.390      65.000
 65.400      65.000
 65.410      65.000
 65.420      65.000
 65.430      65.000
 65.440      65.000
 65.450      65.000
 65.460      65.000
 65.470      65.000
 65.480      65.000
 65.490      65.000
 65.500      65.000
 65.510      65.000
 65.520      65.000
 65.530      65.000
 65.540      65.000
 65.550      65.000
 65.560      65.000
 65.570      65.000
 65.580      65.000
 65.590      65.000
 65.600      65.000
 65.610      65.000
 65.620      65.000
 65.630      65.000
 65.640      65.000
 65.650      65.000
 65.660      65.000
 65.670      65.000
 65.680      65.000
 65.690      65.000
 65.700      65.000
 65.710      65.000
 65.720      65.000
 65.730      65.000
 65.740      65.000
 65.750      65.000
 65.760      65.000
 65.770      65.000
 65.780      65.000
 65.790      65.000
 65.800      65.000
 65.810      65.000
 65.820      65.000
 65.830      65.000
 65.840      65.000
 65.850      65.000
 65.860      65.000
 65.870      65.000
 65.880      65.000
 65.890      65.000
 65.900      65.000
 65.910      65.000
 65.920      65.000
 65.930      65.000
 65.941      65.000
 65.951      65.000
 65.961      65.000
 65.971      65.000
 65.981      65.000
 65.991      65.000
 66.001      65.000
 66.011      65.000
 66.021      65.000
 66.031      65.000
 66.041      65.000
 66.051      65.000
 66.061      65.000
 66.071      65.000
 66.081      65.000
 66.091      65.000
 66.101      65.000
 66.111      65.000
 66.121      65.000
 66.131      65.000
 66.141      65.000
 66.151      65.000
 66.161      65.000
 66.171      65.000
 66.181      65.000
 66.191      65.000
 66.201      65.000
 66.211      65.000
 66.221      65.000
 66.231      65.000
 66.241      65.000
 66.251      65.000
 66.261      65.000
 66.271      65.000
 66.281      65.000
 66.291      65.000
 66.301      65.000
 66.311      65.000
 66.321      65.000
 66.331      65.000
 66.341      65.000
 66.351      65.000
 66.361      65.000
 66.371      65.000
 66.381      65.000
 66.391      65.000
 66.401      65.000
 66.411      65.000
 66.421      65.000
 66.431      65.000
 66.441      65.000
 66.451      65.000
 66.461      65.000
 66.471      65.000
 66.481      65.000
 66.492      65.000
 66.502      65.000
 66.512      65.000
 66.522      65.000
 66.532      65.000
 66.542      65.000
 66.552      65.000
 66.562      65.000
 66.572      65.000
 66.582      65.000
 66.592      65.000
 66.602      65.000
 66.612      65.000
 66.622      65.000
 66.632      65.000
 66.642      65.000
 66.652      65.000
 66.662      65.000
 66.672      65.000
 66.682      65.000
 66.692      65.000
 66.702      65.000
 66.712      65.000
 66.722      65.000
 66.732      65.000
 66.742      65.000
 66.752      65.000
 66.762      65.000
 66.772      65.000
 66.782      65.000
 66.792      65.000
 66.802      65.000
 66.812      65.000
 66.822      65.000
 66.832      65.000
 66.842      65.000
 66.852      65.000
 66.862      65.000
 66.872      65.000
 66.882      65.030
 66.892      65.052
 66.902      65.089
 66.912      65.149
 66.922      65.245
 66.932      65.398
 66.942      65.637
 66.952      66.006
 66.962      66.566
 66.972      67.402
 66.982      68.633
 66.992      70.415
 67.002      72.958
 67.012      76.527
 67.022      81.459
 67.032      88.168
 67.042      97.154
 67.053     108.977
 67.063     124.292
 67.073     143.802
 67.083     168.239
 67.093     198.326
 67.103     234.730
 67.113     277.994
 67.123     328.479
 67.133     386.287
 67.143     451.196
 67.153     522.605
 67.163     599.493
 67.173     680.468
 67.183     763.535
 67.193     846.518
 67.203     926.903
 67.213    1002.013
 67.223    1069.156
 67.233    1125.779
 67.243    1169.630
 67.253    1198.906
 67.263    1212.375
 67.273    1209.463
 67.283    1190.295
 67.293    1155.685
 67.303    1107.036
 67.313    1046.403
 67.323     976.130
 67.333     898.837
 67.343     817.229
 67.353     733.940
 67.363     651.399
 67.373     571.718
 67.383     496.627
 67.393     427.425
 67.403     364.983
 67.413     309.762
 67.423     261.826
 67.433     221.049
 67.443     186.957
 67.453     158.956
 67.463     136.352
 67.473     118.414
 67.483     104.416
 67.493      93.672
 67.503      85.560
 67.513      79.533
 67.523      75.126
 67.533      71.955
 67.543      69.709
 67.553      68.142
 67.563      67.067
 67.573      66.341
 67.583      65.857
 67.593      65.540
 67.604      65.335
 67.614      65.205
 67.624      65.124
 67.634      65.074
 67.644      65.043
 67.654      65.025
 67.664      65.000
 67.674      65.000
 67.684      65.000
 67.694      65.000
 67.704      65.000
 67.714      65.000
 67.724      65.000
 67.734      65.000
 67.744      65.000
 67.754      65.000
 67.764      65.000
 67.774      65.000
 67.784      65.000
 67.794      65.000
 67.804      65.000
 67.814      65.000
 67.824      65.000
 67.834      65.000
 67.844      65.000
 67.854      65.000
 67.864      65.000
 67.874      65.000
 67.884      65.000
 67.894      65.000
 67.904      65.000
 67.914      65.000
 67.924      65.000
 67.934      65.000
 67.944      65.000
 67.954      65.000
 67.964      65.000
 67.974      65.000
 67.984      65.000
 67.994      65.000
 68.004      65.000
 68.014      65.000
 68.024      65.000
 68.034      65.000
 68.044      65.000
 68.054      65.000
 68.064      65.000
 68.074      65.000
 68.084      65.000
 68.094      65.000
 68.104      65.000
 68.114      65.000
 68.124      65.000
 68.134      65.000
 68.144      65.000
 68.154      65.000
 68.165      65.000
 68.175      65.000
 68.185      65.000
 68.195      65.000
 68.205      65.000
 68.215      65.000
 68.225      65.000
 68.235      65.000
 68.245      65.000
 68.255      65.000
 68.265      65.000
 68.275      65.000
 68.285      65.000
 68.295      65.000
 68.305      65.000
 68.315      65.000
 68.325      65.000
 68.335      65.000
 68.345      65.000
 68.355      65.000
 68.365      65.000
 68.375      65.000
 68.385      65.000
 68.395      65.000
 68.405      65.000
 68.415      65.000
 68.425      65.000
 68.435      65.000
 68.445      65.000
 68.455      65.000
 68.465      65.000
 68.475      65.000
 68.485      65.000
 68.495      65.000
 68.505      65.000
 68.515      65.000
 68.525      65.000
 68.535      65.000
 68.545      65.000
 68.555      65.000
 68.565      65.000
 68.575      65.000
 68.585      65.000
 68.595      65.000
 68.605      65.000
 68.615      65.000
 68.625      65.000
 68.635      65.000
 68.645      65.000
 68.655      65.000
 68.665      65.000
 68.675      65.000
 68.685      65.000
 68.695      65.000
 68.705      65.000
 68.715      65.000
 68.726      65.000
 68.736      65.000
 68.746      65.000
 68.756      65.000
 68.766      65.000
 68.776      65.000
 68.786      65.000
 68.796      65.000
 68.806      65.000
 68.816      65.000
 68.826      65.000
 68.836      65.000
 68.846      65.000
 68.856      65.000
 68.866      65.000
 68.876      65.000
 68.886      65.000
 68.896      65.000
 68.906      65.000
 68.916      65.000
 68.926      65.000
 68.936      65.000
 68.946      65.000
 68.956      65.000
 68.966      65.000
 68.976      65.000
 68.986      65.000
 68.996      65.000
 69.006      65.000
 69.016      65.000
 69.026      65.000
 69.036      65.000
 69.046      65.000
 69.056      65.000
 69.066      65.000
 69.076      65.000
 69.086      65.000
 69.096      65.000
 69.106      65.000
 69.116      65.000
 69.126      65.000
 69.136      65.000
 69.146      65.000
 69.156      65.000
 69.166      65.000
 69.176      65.000
 69.186      65.000
 69.196      65.000
 69.206      65.000
 69.216      65.000
 69.226      65.000
 69.236      65.000
 69.246      65.000
 69.256      65.000
 69.266      65.000
 69.277      65.000
 69.287      65.000
 69.297      65.000
 69.307      65.000
 69.317      65.000
 69.327      65.000
 69.337      65.000
 69.347      65.000
 69.357      65.000
 69.367      65.000
 69.377      65.000
 69.387      65.000
 69.397      65.000
 69.407      65.000
 69.417      65.000
 69.427      65.000
 69.437      65.000
 69.447      65.000
 69.457      65.000
 69.467      65.000
 69.477      65.000
 69.487      65.000
 69.497      65.000
 69.507      65.000
 69.517      65.000
 69.527      65.000
 69.537      65.000
 69.547      65.000
 69.557      65.000
 69.567      65.000
 69.577      65.000
 69.587      65.000
 69.597      65.000
 69.607      65.000
 69.617      65.000
 69.627      65.000
 69.637      65.000
 69.647      65.000
 69.657      65.000
 69.667      65.000
 69.677      65.000
 69.687      65.000
 69.697      65.000
 69.707      65.000
 69.717      65.000
 69.727      65.000
 69.737      65.000
 69.747      65.000
 69.757      65.000
 69.767      65.000
 69.777      65.000
 69.787      65.000
 69.797      65.000
 69.807      65.000
 69.817      65.000
 69.827      65.000
 69.838      65.000
 69.848      65.000
 69.858      65.000
 69.868      65.000
 69.878      65.000
 69.888      65.000
 69.898      65.000
 69.908      65.000
 69.918      65.000
 69.928      65.000
 69.938      65.000
 69.948      65.000
 69.958      65.000
 69.968      65.000
 69.978      65.000
 69.988      65.000
 69.998      65.000
 70.008      65.000
 70.018      65.000
 70.028      65.000
 70.038      65.000
 70.048      65.000
 70.058      65.000
 70.068      65.000
 70.078      65.000
 70.088      65.000
 70.098      65.000
 70.108      65.000
 70.118      65.000
 70.128      65.000
 70.138      65.000
 70.148      65.000
 70.158      65.000
 70.168      65.000
 70.178      65.000
 70.188      65.000
 70.198      65.000
 70.208      65.000
 70.218      65.000
 70.228      65.000
 70.238      65.000
 70.248      65.000
 70.258      65.000
 70.268      65.000
 70.278      65.000
 70.288      65.000
 70.298      65.000
 70.308      65.000
 70.318      65.000
 70.328      65.000
 70.338      65.000
 70.348      65.000
 70.358      65.000
 70.368      65.000
 70.378      65.000
 70.389      65.000
 70.399      65.000
 70.409      65.000
 70.419      65.000
 70.429      65.000
 70.439      65.000
 70.449      65.000
 70.459      65.000
 70.469      65.000
 70.479      65.000
 70.489      65.000
 70.499      65.000
 70.509      65.000
 70.519      65.000
 70.529      65.000
 70.539      65.000
 70.549      65.000
 70.559      65.000
 70.569      65.000
 70.579      65.000
 70.589      65.000
 70.599      65.000
 70.609      65.000
 70.619      65.000
 70.629      65.000
 70.639      65.000
 70.649      65.000
 70.659      65.000
 70.669      65.000
 70.679      65.000
 70.689      65.000
 70.699      65.000
 70.709      65.000
 70.719      65.000
 70.729      65.000
 70.739      65.000
 70.749      65.000
 70.759      65.000
 70.769      65.000
 70.779      65.000
 70.789      65.000
 70.799      65.000
 70.809      65.000
 70.819      65.000
 70.829      65.000
 70.839      65.000
 70.849      65.000
 70.859      65.000
 70.869      65.000
 70.879      65.000
 70.889      65.000
 70.899      65.000
 70.909      65.000
 70.919      65.000
 70.929      65.000
 70.939      65.000
 70.950      65.000
 70.960      65.000
 70.970      65.000
 70.980      65.000
 70.990      65.000
 71.000      65.000
 71.010      65.000
 71.020      65.000
 71.030      65.000
 71.040      65.000
 71.050      65.000
 71.060      65.000
 71.070      65.000
 71.080      65.000
 71.090      65.000
 71.100      65.000
 71.110      65.000
 71.120      65.000
 71.130      65.000
 71.140      65.000
 71.150      65.000
 71.160      65.000
 71.170      65.000
 71.180      65.000
 71.190      65.000
 71.200      65.000
 71.210      65.000
 71.220      65.000
 71.230      65.000
 71.240      65.000
 71.250      65.000
 71.260      65.000
 71.270      65.000
 71.280      65.000
 71.290      65.000
 71.300      65.000
 71.310      65.000
 71.320      65.000
 71.330      65.000
 71.340      65.000
 71.350      65.000
 71.360      65.000
 71.370      65.000
 71.380      65.000
 71.390      65.000
 71.400      65.000
 71.410      65.000
 71.420      65.000
 71.430      65.000
 71.440      65.000
 71.450      65.000
 71.460      65.000
 71.470      65.000
 71.480      65.000
 71.490      65.000
 71.501      65.000
 71.511      65.000
 71.521      65.000
 71.531      65.000
 71.541      65.000
 71.551      65.000
 71.561      65.000
 71.571      65.000
 71.581      65.000
 71.591      65.000
 71.601      65.000
 71.611      65.000
 71.621      65.000
 71.631      65.000
 71.641      65.000
 71.651      65.000
 71.661      65.000
 71.671      65.000
 71.681      65.000
 71.691      65.000
 71.701      65.000
 71.711      65.000
 71.721      65.000
 71.731      65.000
 71.741      65.000
 71.751      65.000
 71.761      65.000
 71.771      65.000
 71.781      65.000
 71.791      65.000
 71.801      65.000
 71.811      65.000
 71.821      65.000
 71.831      65.000
 71.841      65.000
 71.851      65.000
 71.861      65.000
 71.871      65.000
 71.881      65.000
 71.891      65.000
 71.901      65.000
 71.911      65.000
 71.921      65.000
 71.931      65.000
 71.941      65.000
 71.951      65.000
 71.961      65.000
 71.971      65.000
 71.981      65.000
 71.991      65.000
 72.001      65.000
 72.011      65.000
 72.021      65.000
 72.031      65.000
 72.041      65.000
 72.051      65.000
 72.062      65.000
 72.072      65.000
 72.082      65.000
 72.092      65.000
 72.102      65.000
 72.112      65.000
 72.122      65.000
 72.132      65.000
 72.142      65.000
 72.152      65.000
 72.162      65.000
 72.172      65.000
 72.182      65.000
 72.192      65.000
 72.202      65.000
 72.212      65.000
 72.222      65.000
 72.232      65.000
 72.242      65.000
 72.252      65.000
 72.262      65.000
 72.272      65.000
 72.282      65.000
 72.292      65.000
 72.302      65.000
 72.312      65.000
 72.322      65.000
 72.332      65.000
 72.342      65.000
 72.352      65.000
 72.362      65.000
 72.372      65.000
 72.382      65.000
 72.392      65.000
 72.402      65.000
 72.412      65.000
 72.422      65.000
 72.432      65.000
 72.442      65.000
 72.452      65.000
 72.462      65.000
 72.472      65.000
 72.482      65.000
 72.492      65.000
 72.502      65.000
 72.512      65.000
 72.522      65.000
 72.532      65.000
 72.542      65.000
 72.552      65.000
 72.562      65.000
 72.572      65.000
 72.582      65.000
 72.592      65.000
 72.602      65.000
 72.613      65.000
 72.623      65.000
 72.633      65.000
 72.643      65.000
 72.653      65.000
 72.663      65.000
 72.673      65.000
 72.683      65.000
 72.693      65.000
 72.703      65.000
 72.713      65.000
 72.723      65.000
 72.733      65.000
 72.743      65.000
 72.753      65.000
 72.763      65.000
 72.773      65.000
 72.783      65.000
 72.793      65.000
 72.803      65.000
 72.813      65.000
 72.823      65.000
 72.833      65.000
 72.843      65.000
 72.853      65.000
 72.863      65.000
 72.873      65.000
 72.883      65.000
 72.893      65.000
 72.903      65.000
 72.913      65.000
 72.923      65.000
 72.933      65.000
 72.943      65.000
 72.953      65.000
 72.963      65.000
 72.973      65.000
 72.983      65.000
 72.993      65.000
 73.003      65.000
 73.013      65.000
 73.023      65.000
 73.033      65.000
 73.043      65.000
 73.053      65.000
 73.063      65.000
 73.073      65.000
 73.083      65.000
 73.093      65.000
 73.103      65.000
 73.113      65.000
 73.123      65.000
 73.133      65.000
 73.143      65.000
 73.153      65.000
 73.163      65.000
 73.174      65.000
 73.184      65.000
 73.194      65.000
 73.204      65.000
 73.214      65.000
 73.224      65.000
 73.234      65.000
 73.244      65.000
 73.254      65.000
 73.264      65.000
 73.274      65.000
 73.284      65.000
 73.294      65.000
 73.304      65.000
 73.314      65.000
 73.324      65.000
 73.334      65.000
 73.344      65.000
 73.354      65.000
 73.364      65.000
 73.374      65.000
 73.384      65.000
 73.394      65.000
 73.404      65.000
 73.414      65.000
 73.424      65.000
 73.434      65.000
 73.444      65.000
 73.454      65.000
 73.464      65.000
 73.474      65.000
 73.484      65.000
 73.494      65.000
 73.504      65.000
 73.514      65.000
 73.524      65.000
 73.534      65.000
 73.544      65.000
 73.554      65.000
 73.564      65.000
 73.574      65.000
 73.584      65.000
 73.594      65.000
 73.604      65.000
 73.614      65.000
 73.624      65.000
 73.634      65.000
 73.644      65.000
 73.654      65.000
 73.664      65.000
 73.674      65.000
 73.684      65.000
 73.694      65.000
 73.704      65.000
 73.714      65.000
 73.724      65.000
 73.735      65.000
 73.745      65.000
 73.755      65.000
 73.765      65.000
 73.775      65.000
 73.785      65.000
 73.795      65.000
 73.805      65.000
 73.815      65.000
 73.825      65.000
 73.835      65.000
 73.845      65.000
 73.855      65.000
 73.865      65.000
 73.875      65.000
 73.885      65.000
 73.895      65.000
 73.905      65.000
 73.915      65.000
 73.925      65.000
 73.935      65.000
 73.945      65.000
 73.955      65.000
 73.965      65.000
 73.975      65.000
 73.985      65.000
 73.995      65.000
 74.005      65.000
 74.015      65.000
 74.025      65.000
 74.035      65.000
 74.045      65.000
 74.055      65.000
 74.065      65.000
 74.075      65.000
 74.085      65.000
 74.095      65.000
 74.105      65.000
 74.115      65.000
 74.125      65.000
 74.135      65.000
 74.145      65.000
 74.155      65.000
 74.165      65.000
 74.175      65.000
 74.185      65.000
 74.195      65.000
 74.205      65.000
 74.215      65.000
 74.225      65.000
 74.235      65.000
 74.245      65.000
 74.255      65.000
 74.265      65.000
 74.275      65.000
 74.286      65.000
 74.296      65.000
 74.306      65.000
 74.316      65.000
 74.326      65.000
 74.336      65.000
 74.346      65.000
 74.356      65.000
 74.366      65.000
 74.376      65.000
 74.386      65.000
 74.396      65.000
 74.406      65.000
 74.416      65.000
 74.426      65.000
 74.436      65.000
 74.446      65.000
 74.456      65.000
 74.466      65.000
 74.476      65.000
 74.486      65.000
 74.496      65.000
 74.506      65.000
 74.516      65.000
 74.526      65.000
 74.536      65.000
 74.546      65.000
 74.556      65.000
 74.566      65.000
 74.576      65.000
 74.586      65.000
 74.596      65.000
 74.606      65.000
 74.616      65.000
 74.626      65.000
 74.636      65.000
 74.646      65.000
 74.656      65.000
 74.666      65.000
 74.676      65.000
 74.686      65.000
 74.696      65.000
 74.706      65.000
 74.716      65.000
 74.726      65.000
 74.736      65.000
 74.746      65.000
 74.756      65.000
 74.766      65.000
 74.776      65.000
 74.786      65.000
 74.796      65.000
 74.806      65.000
 74.816      65.000
 74.826      65.000
 74.836      65.000
 74.847      65.000
 74.857      65.000
 74.867      65.000
 74.877      65.000
 74.887      65.000
 74.897      65.000
 74.907      65.000
 74.917      65.000
 74.927      65.000
 74.937      65.000
 74.947      65.000
 74.957      65.000
 74.967      65.000
 74.977      65.000
 74.987      65.000
 74.997      65.000
 75.007      65.000
 75.017      65.000
 75.027      65.000
 75.037      65.000
 75.047      65.000
 75.057      65.000
 75.067      65.000
 75.077      65.000
 75.087      65.000
 75.097      65.000
 75.107      65.000
 75.117      65.000
 75.127      65.000
 75.137      65.000
 75.147      65.000
 75.157      65.000
 75.167      65.000
 75.177      65.000
 75.187      65.000
 75.197      65.000
 75.207      65.000
 75.217      65.000
 75.227      65.000
 75.237      65.000
 75.247      65.000
 75.257      65.000
 75.267      65.000
 75.277      65.000
 75.287      65.000
 75.297      65.000
 75.307      65.000
 75.317      65.000
 75.327      65.000
 75.337      65.000
 75.347      65.000
 75.357      65.000
 75.367      65.000
 75.377      65.000
 75.387      65.000
 75.398      65.000
 75.408      65.000
 75.418      65.000
 75.428      65.000
 75.438      65.000
 75.448      65.000
 75.458      65.000
 75.468      65.000
 75.478      65.000
 75.488      65.000
 75.498      65.000
 75.508      65.000
 75.518      65.000
 75.528      65.000
 75.538      65.000
 75.548      65.000
 75.558      65.000
 75.568      65.000
 75.578      65.000
 75.588      65.000
 75.598      65.000
 75.608      65.000
 75.618      65.000
 75.628      65.000
 75.638      65.000
 75.648      65.000
 75.658      65.000
 75.668      65.000
 75.678      65.000
 75.688      65.000
 75.698      65.000
 75.708      65.000
 75.718      65.000
 75.728      65.000
 75.738      65.000
 75.748      65.000
 75.758      65.000
 75.768      65.000
 75.778      65.000
 75.788      65.000
 75.798      65.000
 75.808      65.000
 75.818      65.000
 75.828      65.000
 75.838      65.000
 75.848      65.000
 75.858      65.000
 75.868      65.000
 75.878      65.000
 75.888      65.000
 75.898      65.000
 75.908      65.000
 75.918      65.000
 75.928      65.000
 75.938      65.000
 75.948      65.000
 75.959      65.000
 75.969      65.000
 75.979      65.000
 75.989      65.000
 75.999      65.000
 76.009      65.000
 76.019      65.000
 76.029      65.000
 76.039      65.000
 76.049      65.000
 76.059      65.000
 76.069      65.000
 76.079      65.000
 76.089      65.000
 76.099      65.000
 76.109      65.000
 76.119      65.000
 76.129      65.000
 76.139      65.000
 76.149      65.000
 76.159      65.000
 76.169      65.000
 76.179      65.000
 76.189      65.000
 76.199      65.000
 76.209      65.000
 76.219      65.000
 76.229      65.000
 76.239      65.000
 76.249      65.000
 76.259      65.000
 76.269      65.000
 76.279      65.000
 76.289      65.000
 76.299      65.000
 76.309      65.000
 76.319      65.000
 76.329      65.000
 76.339      65.000
 76.349      65.000
 76.359      65.000
 76.369      65.000
 76.379      65.000
 76.389      65.000
 76.399      65.000
 76.409      65.000
 76.419      65.000
 76.429      65.000
 76.439      65.000
 76.449      65.000
 76.459      65.000
 76.469      65.000
 76.479      65.000
 76.489      65.000
 76.499      65.000
 76.509      65.000
 76.520      65.000
 76.530      65.000
 76.540      65.000
 76.550      65.000
 76.560      65.000
 76.570      65.000
 76.580      65.000
 76.590      65.000
 76.600      65.000
 76.610      65.000
 76.620      65.000
 76.630      65.000
 76.640      65.000
 76.650      65.000
 76.660      65.000
 76.670      65.000
 76.680      65.000
 76.690      65.000
 76.700      65.000
 76.710      65.000
 76.720      65.000
 76.730      65.000
 76.740      65.000
 76.750      65.000
 76.760      65.000
 76.770      65.000
 76.780      65.000
 76.790      65.000
 76.800      65.000
 76.810      65.000
 76.820      65.000
 76.830      65.000
 76.840      65.000
 76.850      65.000
 76.860      65.000
 76.870      65.000
 76.880      65.000
 76.890      65.000
 76.900      65.000
 76.910      65.000
 76.920      65.000
 76.930      65.000
 76.940      65.000
 76.950      65.000
 76.960      65.000
 76.970      65.000
 76.980      65.000
 76.990      65.000
 77.000      65.000
 77.010      65.000
 77.020      65.000
 77.030      65.000
 77.040      65.000
 77.050      65.000
 77.060      65.000
 77.071      65.000
 77.081      65.000
 77.091      65.000
 77.101      65.000
 77.111      65.000
 77.121      65.000
 77.131      65.000
 77.141      65.000
 77.151      65.000
 77.161      65.000
 77.171      65.000
 77.181      65.000
 77.191      65.000
 77.201      65.000
 77.211      65.000
 77.221      65.000
 77.231      65.000
 77.241      65.000
 77.251      65.000
 77.261      65.000
 77.271      65.000
 77.281      65.000
 77.291      65.000
 77.301      65.000
 77.311      65.000
 77.321      65.000
 77.331      65.000
 77.341      65.000
 77.351      65.000
 77.361      65.000
 77.371      65.000
 77.381      65.000
 77.391      65.000
 77.401      65.000
 77.411      65.000
 77.421      65.000
 77.431      65.000
 77.441      65.000
 77.451      65.000
 77.461      65.000
 77.471      65.000
 77.481      65.000
 77.491      65.000
 77.501      65.000
 77.511      65.000
 77.521      65.000
 77.531      65.000
 77.541      65.000
 77.551      65.000
 77.561      65.000
 77.571      65.000
 77.581      65.000
 77.591      65.000
 77.601      65.000
 77.611      65.000
 77.621      65.000
 77.632      65.000
 77.642      65.000
 77.652      65.000
 77.662      65.000
 77.672      65.000
 77.682      65.000
 77.692      65.000
 77.702      65.000
 77.712      65.000
 77.722      65.000
 77.732      65.000
 77.742      65.000
 77.752      65.000
 77.762      65.000
 77.772      65.000
 77.782      65.000
 77.792      65.000
 77.802      65.000
 77.812      65.000
 77.822      65.000
 77.832      65.000
 77.842      65.000
 77.852      65.000
 77.862      65.000
 77.872      65.000
 77.882      65.000
 77.892      65.000
 77.902      65.000
 77.912      65.000
 77.922      65.000
 77.932      65.000
 77.942      65.000
 77.952      65.000
 77.962      65.000
 77.972      65.000
 77.982      65.000
 77.992      65.000
 78.002      65.000
 78.012      65.000
 78.022      65.000
 78.032      65.000
 78.042      65.000
 78.052      65.000
 78.062      65.000
 78.072      65.000
 78.082      65.000
 78.092      65.000
 78.102      65.000
 78.112      65.000
 78.122      65.000
 78.132      65.000
 78.142      65.000
 78.152      65.000
 78.162      65.000
 78.172      65.000
 78.183      65.000
 78.193      65.000
 78.203      65.000
 78.213      65.000
 78.223      65.000
 78.233      65.000
 78.243      65.000
 78.253      65.000
 78.263      65.000
 78.273      65.000
 78.283      65.000
 78.293      65.000
 78.303      65.000
 78.313      65.000
 78.323      65.000
 78.333      65.000
 78.343      65.000
 78.353      65.000
 78.363      65.000
 78.373      65.000
 78.383      65.000
 78.393      65.000
 78.403      65.000
 78.413      65.000
 78.423      65.000
 78.433      65.000
 78.443      65.000
 78.453      65.000
 78.463      65.000
 78.473      65.000
 78.483      65.000
 78.493      65.000
 78.503      65.000
 78.513      65.000
 78.523      65.000
 78.533      65.000
 78.543      65.000
 78.553      65.000
 78.563      65.000
 78.573      65.000
 78.583      65.000
 78.593      65.000
 78.603      65.000
 78.613      65.000
 78.623      65.000
 78.633      65.000
 78.643      65.000
 78.653      65.000
 78.663      65.000
 78.673      65.000
 78.683      65.000
 78.693      65.000
 78.703      65.000
 78.713      65.000
 78.723      65.000
 78.733      65.000
 78.744      65.000
 78.754      65.000
 78.764      65.000
 78.774      65.000
 78.784      65.000
 78.794      65.000
 78.804      65.000
 78.814      65.000
 78.824      65.000
 78.834      65.000
 78.844      65.000
 78.854      65.000
 78.864      65.000
 78.874      65.000
 78.884      65.000
 78.894      65.000
 78.904      65.000
 78.914      65.000
 78.924      65.000
 78.934      65.000
 78.944      65.000
 78.954      65.000
 78.964      65.000
 78.974      65.000
 78.984      65.000
 78.994      65.000
 79.004      65.000
 79.014      65.000
 79.024      65.000
 79.034      65.000
 79.044      65.000
 79.054      65.000
 79.064      65.001
 79.074      65.002
 79.084      65.003
 79.094      65.005
 79.104      65.007
 79.114      65.011
 79.124      65.017
 79.134      65.026
 79.144      65.038
 79.154      65.056
 79.164      65.081
 79.174      65.117
 79.184      65.167
 79.194      65.236
 79.204      65.330
 79.214      65.455
 79.224      65.623
 79.234      65.843
 79.244      66.128
 79.254      66.495
 79.264      66.960
 79.274      67.543
 79.284      68.264
 79.295      69.147
 79.305      70.214
 79.315      71.485
 79.325      72.983
 79.335      74.723
 79.345      76.719
 79.355      78.978
 79.365      81.496
 79.375      84.266
 79.385      87.264
 79.395      90.461
 79.405      93.812
 79.415      97.262
 79.425     100.751
 79.435     104.200
 79.445     107.531
 79.455     110.664
 79.465     113.514
 79.475     116.003
 79.485     118.059
 79.495     119.621
 79.505     120.640
 79.515     121.086
 79.525     120.944
 79.535     120.219
 79.545     118.933
 79.555     117.125
 79.565     114.851
 79.575     112.178
 79.585     109.181
 79.595     105.942
 79.605     102.544
 79.615      99.068
 79.625      95.590
 79.635      92.180
 79.645      88.898
 79.655      85.792
 79.665      82.900
 79.675      80.248
 79.685      77.854
 79.695      75.723
 79.705      73.852
 79.715      72.230
 79.725      70.844
 79.735      69.675
 79.745      68.700
 79.755      67.898
 79.765      67.246
 79.775      66.722
 79.785      66.307
 79.795      65.982
 79.805      65.729
 79.815      65.536
 79.825      65.390
 79.835      65.281
 79.845      65.200
 79.856      65.141
 79.866      65.098
 79.876      65.068
 79.886      65.046
 79.896      65.031
 79.906      65.021
 79.916      65.014
 79.926      65.009
 79.936      65.006
 79.946      65.004
 79.956      65.002
 79.966      65.002
 79.976      65.001
 79.986      65.000
 79.996      65.000
 80.006      65.000
 80.016      65.000
 80.026      65.000
 80.036      65.000
 80.046      65.000
 80.056      65.000
 80.066      65.000
 80.076      65.000
 80.086      65.000
 80.096      65.000
 80.106      65.000
 80.116      65.000
 80.126      65.000
 80.136      65.000
 80.146      65.000
 80.156      65.000
 80.166      65.000
 80.176      65.000
 80.186      65.000
 80.196      65.000
 80.206      65.000
 80.216      65.000
 80.226      65.000
 80.236      65.000
 80.246      65.000
 80.256      65.000
 80.266      65.000
 80.276      65.000
 80.286      65.000
 80.296      65.000
 80.306      65.000
 80.316      65.000
 80.326      65.000
 80.336      65.000
 80.346      65.000
 80.356      65.000
 80.366      65.000
 80.376      65.000
 80.386      65.000
 80.396      65.000
 80.407      65.000
 80.417      65.000
 80.427      65.000
 80.437      65.000
 80.447      65.000
 80.457      65.000
 80.467      65.000
 80.477      65.000
 80.487      65.000
 80.497      65.000
 80.507      65.000
 80.517      65.000
 80.527      65.000
 80.537      65.000
 80.547      65.000
 80.557      65.000
 80.567      65.000
 80.577      65.000
 80.587      65.000
 80.597      65.000
 80.607      65.000
 80.617      65.000
 80.627      65.000
 80.637      65.000
 80.647      65.000
 80.657      65.000
 80.667      65.000
 80.677      65.000
 80.687      65.000
 80.697      65.000
 80.707      65.000
 80.717      65.000
 80.727      65.000
 80.737      65.000
 80.747      65.000
 80.757      65.000
 80.767      65.000
 80.777      65.000
 80.787      65.000
 80.797      65.000
 80.807      65.000
 80.817      65.000
 80.827      65.000
 80.837      65.000
 80.847      65.000
 80.857      65.000
 80.867      65.000
 80.877      65.000
 80.887      65.000
 80.897      65.000
 80.907      65.000
 80.917      65.000
 80.927      65.000
 80.937      65.000
 80.947      65.000
 80.957      65.000
 80.968      65.000
 80.978      65.000
 80.988      65.000
 80.998      65.000
 81.008      65.000
 81.018      65.000
 81.028      65.000
 81.038      65.000
 81.048      65.000
 81.058      65.000
 81.068      65.000
 81.078      65.000
 81.088      65.000
 81.098      65.000
 81.108      65.000
 81.118      65.000
 81.128      65.000
 81.138      65.000
 81.148      65.000
 81.158      65.000
 81.168      65.000
 81.178      65.000
 81.188      65.024
 81.198      65.038
 81.208      65.060
 81.218      65.093
 81.228      65.143
 81.238      65.217
 81.248      65.327
 81.258      65.488
 81.268      65.722
 81.278      66.056
 81.288      66.530
 81.298      67.195
 81.308      68.117
 81.318      69.385
 81.328      71.105
 81.338      73.416
 81.348      76.487
 81.358      80.523
 81.368      85.769
 81.378      92.514
 81.388     101.089
 81.398     111.868
 81.408     125.264
 81.418     141.723
 81.428     161.710
 81.438     185.699
 81.448     214.171
 81.458     247.505
 81.468     286.080
 81.478     330.158
 81.488     379.878
 81.498     435.222
 81.508     495.988
 81.519     561.763
 81.529     631.912
 81.539     705.567
 81.549     781.631
 81.559     858.795
 81.569     935.570
 81.579    1010.381
 81.589    1081.397
 81.599    1146.936
 81.609    1205.309
 81.619    1254.941
 81.629    1294.448
 81.639    1322.701
 81.649    1338.875
 81.659    1342.493
 81.669    1333.446
 81.679    1312.005
 81.689    1278.797
 81.699    1234.749
 81.709    1181.173
 81.719    1119.515
 81.729    1051.408
 81.739     978.570
 81.749     902.741
 81.759     825.606
 81.769     748.742
 81.779     673.564
 81.789     601.294
 81.799     532.931
 81.809     469.243
 81.819     410.769
 81.829     357.789
 81.839     310.504
 81.849     268.819
 81.859     232.538
 81.869     201.353
 81.879     174.874
 81.889     152.662
 81.899     134.248
 81.909     119.161
 81.919     106.942
 81.929      97.158
 81.939      89.413
 81.949      83.346
 81.959      78.653
 81.969      75.060
 81.979      72.339
 81.989      70.301
 81.999      68.791
 82.009      67.685
 82.019      66.882
 82.029      66.307
 82.039      65.898
 82.049      65.611
 82.059      65.412
 82.069      65.275
 82.080      65.181
 82.090      65.119
 82.100      65.077
 82.110      65.049
 82.120      65.031
 82.130      65.020
 82.140      65.000
 82.150      65.000
 82.160      65.000
 82.170      65.000
 82.180      65.000
 82.190      65.000
 82.200      65.000
 82.210      65.000
 82.220      65.000
 82.230      65.000
 82.240      65.000
 82.250      65.000
 82.260      65.000
 82.270      65.000
 82.280      65.000
 82.290      65.000
 82.300      65.000
 82.310      65.000
 82.320      65.000
 82.330      65.000
 82.340      65.000
 82.350      65.000
 82.360      65.000
 82.370      65.000
 82.380      65.000
 82.390      65.000
 82.400      65.000
 82.410      65.000
 82.420      65.000
 82.430      65.000
 82.440      65.000
 82.450      65.000
 82.460      65.000
 82.470      65.000
 82.480      65.000
 82.490      65.000
 82.500      65.000
 82.510      65.000
 82.520      65.000
 82.530      65.000
 82.540      65.000
 82.550      65.000
 82.560      65.000
 82.570      65.000
 82.580      65.000
 82.590      65.000
 82.600      65.000
 82.610      65.000
 82.620      65.000
 82.631      65.000
 82.641      65.000
 82.651      65.000
 82.661      65.000
 82.671      65.000
 82.681      65.000
 82.691      65.000
 82.701      65.000
 82.711      65.000
 82.721      65.000
 82.731      65.000
 82.741      65.000
 82.751      65.000
 82.761      65.000
 82.771      65.000
 82.781      65.000
 82.791      65.000
 82.801      65.000
 82.811      65.000
 82.821      65.000
 82.831      65.000
 82.841      65.000
 82.851      65.000
 82.861      65.000
 82.871      65.000
 82.881      65.000
 82.891      65.000
 82.901      65.000
 82.911      65.000
 82.921      65.000
 82.931      65.000
 82.941      65.000
 82.951      65.000
 82.961      65.000
 82.971      65.000
 82.981      65.000
 82.991      65.000
 83.001      65.000
 83.011      65.000
 83.021      65.000
 83.031      65.000
 83.041      65.000
 83.051      65.000
 83.061      65.000
 83.071      65.000
 83.081      65.000
 83.091      65.000
 83.101      65.000
 83.111      65.000
 83.121      65.000
 83.131      65.000
 83.141      65.000
 83.151      65.000
 83.161      65.000
 83.171      65.000
 83.181      65.000
 83.192      65.000
 83.202      65.000
 83.212      65.000
 83.222      65.000
 83.232      65.000
 83.242      65.000
 83.252      65.000
 83.262      65.000
 83.272      65.000
 83.282      65.000
 83.292      65.000
 83.302      65.000
 83.312      65.000
 83.322      65.000
 83.332      65.000
 83.342      65.000
 83.352      65.000
 83.362      65.000
 83.372      65.000
 83.382      65.000
 83.392      65.000
 83.402      65.000
 83.412      65.000
 83.422      65.000
 83.432      65.000
 83.442      65.000
 83.452      65.000
 83.462      65.000
 83.472      65.000
 83.482      65.000
 83.492      65.000
 83.502      65.000
 83.512      65.000
 83.522      65.000
 83.532      65.000
 83.542      65.000
 83.552      65.000
 83.562      65.000
 83.572      65.000
 83.582      65.000
 83.592      65.000
 83.602      65.000
 83.612      65.000
 83.622      65.000
 83.632      65.000
 83.642      65.000
 83.652      65.000
 83.662      65.000
 83.672      65.000
 83.682      65.000
 83.692      65.000
 83.702      65.000
 83.712      65.000
 83.722      65.000
 83.732      65.000
 83.743      65.000
 83.753      65.000
 83.763      65.000
 83.773      65.000
 83.783      65.000
 83.793      65.000
 83.803      65.000
 83.813      65.000
 83.823      65.000
 83.833      65.000
 83.843      65.000
 83.853      65.000
 83.863      65.000
 83.873      65.000
 83.883      65.000
 83.893      65.000
 83.903      65.000
 83.913      65.000
 83.923      65.000
 83.933      65.000
 83.943      65.000
 83.953      65.000
 83.963      65.000
 83.973      65.000
 83.983      65.000
 83.993      65.000
 84.003      65.000
 84.013      65.000
 84.023      65.000
 84.033      65.000
 84.043      65.000
 84.053      65.000
 84.063      65.000
 84.073      65.000
 84.083      65.000
 84.093      65.000
 84.103      65.000
 84.113      65.000
 84.123      65.000
 84.133      65.000
 84.143      65.000
 84.153      65.000
 84.163      65.000
 84.173      65.000
 84.183      65.000
 84.193      65.000
 84.203      65.000
 84.213      65.000
 84.223      65.000
 84.233      65.000
 84.243      65.000
 84.253      65.000
 84.263      65.000
 84.273      65.000
 84.283      65.000
 84.293      65.000
 84.304      65.000
 84.314      65.000
 84.324      65.000
 84.334      65.000
 84.344      65.000
 84.354      65.000
 84.364      65.000
 84.374      65.000
 84.384      65.000
 84.394      65.000
 84.404      65.000
 84.414      65.000
 84.424      65.000
 84.434      65.000
 84.444      65.000
 84.454      65.000
 84.464      65.000
 84.474      65.000
 84.484      65.000
 84.494      65.000
 84.504      65.000
 84.514      65.000
 84.524      65.000
 84.534      65.000
 84.544      65.000
 84.554      65.000
 84.564      65.000
 84.574      65.000
 84.584      65.000
 84.594      65.000
 84.604      65.000
 84.614      65.000
 84.624      65.000
 84.634      65.000
 84.644      65.000
 84.654      65.000
 84.664      65.000
 84.674      65.000
 84.684      65.000
 84.694      65.000
 84.704      65.000
 84.714      65.000
 84.724      65.000
 84.734      65.000
 84.744      65.000
 84.754      65.000
 84.764      65.000
 84.774      65.000
 84.784      65.000
 84.794      65.000
 84.804      65.000
 84.814      65.000
 84.824      65.000
 84.834      65.000
 84.844      65.000
 84.854      65.000
 84.865      65.000
 84.875      65.000
 84.885      65.000
 84.895      65.000
 84.905      65.000
 84.915      65.000
 84.925      65.000
 84.935      65.000
 84.945      65.000
 84.955      65.000
 84.965      65.000
 84.975      65.000
 84.985      65.000
 84.995      65.000
 85.005      65.000
 85.015      65.000
 85.025      65.000
 85.035      65.000
 85.045      65.000
 85.055      65.000
 85.065      65.000
 85.075      65.000
 85.085      65.000
 85.095      65.000
 85.105      65.000
 85.115      65.000
 85.125      65.000
 85.135      65.000
 85.145      65.000
 85.155      65.000
 85.165      65.000
 85.175      65.000
 85.185      65.000
 85.195      65.000
 85.205      65.000
 85.215      65.000
 85.225      65.000
 85.235      65.000
 85.245      65.000
 85.255      65.000
 85.265      65.000
 85.275      65.000
 85.285      65.000
 85.295      65.000
 85.305      65.000
 85.315      65.000
 85.325      65.000
 85.335      65.000
 85.345      65.000
 85.355      65.000
 85.365      65.000
 85.375      65.000
 85.385      65.000
 85.395      65.000
 85.405      65.000
 85.416      65.000
 85.426      65.000
 85.436      65.000
 85.446      65.000
 85.456      65.000
 85.466      65.000
 85.476      65.000
 85.486      65.000
 85.496      65.000
 85.506      65.000
 85.516      65.000
 85.526      65.000
 85.536      65.000
 85.546      65.000
 85.556      65.000
 85.566      65.000
 85.576      65.000
 85.586      65.000
 85.596      65.000
 85.606      65.000
 85.616      65.000
 85.626      65.000
 85.636      65.000
 85.646      65.000
 85.656      65.000
 85.666      65.000
 85.676      65.000
 85.686      65.000
 85.696      65.000
 85.706      65.000
 85.716      65.000
 85.726      65.000
 85.736      65.000
 85.746      65.000
 85.756      65.000
 85.766      65.000
 85.776      65.000
 85.786      65.000
 85.796      65.000
 85.806      65.000
 85.816      65.000
 85.826      65.000
 85.836      65.000
 85.846      65.000
 85.856      65.000
 85.866      65.000
 85.876      65.000
 85.886      65.000
 85.896      65.000
 85.906      65.000
 85.916      65.000
 85.926      65.000
 85.936      65.000
 85.946      65.000
 85.956      65.000
 85.966      65.000
 85.977      65.000
 85.987      65.000
 85.997      65.000
 86.007      65.000
 86.017      65.000
 86.027      65.000
 86.037      65.000
 86.047      65.000
 86.057      65.000
 86.067      65.000
 86.077      65.000
 86.087      65.000
 86.097      65.000
 86.107      65.000
 86.117      65.000
 86.127      65.000
 86.137      65.000
 86.147      65.000
 86.157      65.000
 86.167      65.000
 86.177      65.000
 86.187      65.000
 86.197      65.000
 86.207      65.000
 86.217      65.000
 86.227      65.000
 86.237      65.000
 86.247      65.000
 86.257      65.000
 86.267      65.000
 86.277      65.000
 86.287      65.000
 86.297      65.000
 86.307      65.000
 86.317      65.000
 86.327      65.000
 86.337      65.000
 86.347      65.000
 86.357      65.000
 86.367      65.000
 86.377      65.000
 86.387      65.000
 86.397      65.000
 86.407      65.000
 86.417      65.000
 86.427      65.000
 86.437      65.000
 86.447      65.000
 86.457      65.000
 86.467      65.000
 86.477      65.000
 86.487      65.000
 86.497      65.000
 86.507      65.000
 86.517      65.000
 86.528      65.000
 86.538      65.000
 86.548      65.000
 86.558      65.000
 86.568      65.000
 86.578      65.000
 86.588      65.000
 86.598      65.000
 86.608      65.000
 86.618      65.000
 86.628      65.000
 86.638      65.000
 86.648      65.000
 86.658      65.000
 86.668      65.000
 86.678      65.000
 86.688      65.000
 86.698      65.000
 86.708      65.000
 86.718      65.000
 86.728      65.000
 86.738      65.000
 86.748      65.000
 86.758      65.000
 86.768      65.000
 86.778      65.000
 86.788      65.000
 86.798      65.000
 86.808      65.000
 86.818      65.000
 86.828      65.000
 86.838      65.000
 86.848      65.000
 86.858      65.000
 86.868      65.000
 86.878      65.000
 86.888      65.000
 86.898      65.000
 86.908      65.000
 86.918      65.000
 86.928      65.000
 86.938      65.000
 86.948      65.000
 86.958      65.000
 86.968      65.000
 86.978      65.000
 86.988      65.000
 86.998      65.000
 87.008      65.000
 87.018      65.000
 87.028      65.000
 87.038      65.000
 87.048      65.000
 87.058      65.000
 87.068      65.000
 87.078      65.000
 87.089      65.000
 87.099      65.000
 87.109      65.000
 87.119      65.000
 87.129      65.000
 87.139      65.000
 87.149      65.000
 87.159      65.000
 87.169      65.000
 87.179      65.000
 87.189      65.000
 87.199      65.000
 87.209      65.000
 87.219      65.000
 87.229      65.000
 87.239      65.000
 87.249      65.000
 87.259      65.000
 87.269      65.000
 87.279      65.000
 87.289      65.000
 87.299      65.000
 87.309      65.000
 87.319      65.000
 87.329      65.000
 87.339      65.000
 87.349      65.000
 87.359      65.000
 87.369      65.000
 87.379      65.000
 87.389      65.000
 87.399      65.000
 87.409      65.000
 87.419      65.000
 87.429      65.000
 87.439      65.000
 87.449      65.000
 87.459      65.000
 87.469      65.000
 87.479      65.000
 87.489      65.000
 87.499      65.000
 87.509      65.004
 87.519      65.006
 87.529      65.009
 87.539      65.013
 87.549      65.019
 87.559      65.028
 87.569      65.041
 87.579      65.060
 87.589      65.086
 87.599      65.123
 87.609      65.173
 87.619      65.242
 87.629      65.337
 87.640      65.464
 87.650      65.633
 87.660      65.857
 87.670      66.150
 87.680      66.531
 87.690      67.022
 87.700      67.647
 87.710      68.436
 87.720      69.424
 87.730      70.647
 87.740      72.149
 87.750      73.975
 87.760      76.173
 87.770      78.795
 87.780      81.887
 87.790      85.499
 87.800      89.676
 87.810      94.456
 87.820      99.869
 87.830     105.931
 87.840     112.645
 87.850     119.998
 87.860     127.955
 87.870     136.460
 87.880     145.437
 87.890     154.793
 87.900     164.390
 87.910     174.094
 87.920     183.744
 87.930     193.168
 87.940     202.184
 87.950     210.608
 87.960     218.257
 87.970     224.960
 87.980     230.562
 87.990     234.927
 88.000     237.951
 88.010     239.557
 88.020     239.705
 88.030     238.392
 88.040     235.651
 88.050     231.550
 88.060     226.189
 88.070     219.697
 88.080     212.226
 88.090     203.945
 88.100     195.034
 88.110     185.677
 88.120     176.058
 88.130     166.352
 88.140     156.714
 88.150     147.305
 88.160     138.244
 88.170     129.636
 88.180     121.563
 88.190     114.084
 88.201     107.239
 88.211     101.044
 88.221      95.501
 88.231      90.595
 88.241      86.298
 88.251      82.575
 88.261      79.381
 88.271      76.668
 88.281      74.389
 88.291      72.491
 88.301      70.928
 88.311      69.651
 88.321      68.619
 88.331      67.793
 88.341      67.137
 88.351      66.621
 88.361      66.220
 88.371      65.910
 88.381      65.673
 88.391      65.494
 88.401      65.359
 88.411      65.259
 88.421      65.186
 88.431      65.132
 88.441      65.093
 88.451      65.065
 88.461      65.045
 88.471      65.031
 88.481      65.021
 88.491      65.014
 88.501      65.009
 88.511      65.006
 88.521      65.004
 88.531      65.003
 88.541      65.000
 88.551      65.000
 88.561      65.000
 88.571      65.000
 88.581      65.000
 88.591      65.000
 88.601      65.000
 88.611      65.000
 88.621      65.000
 88.631      65.000
 88.641      65.000
 88.651      65.000
 88.661      65.000
 88.671      65.000
 88.681      65.000
 88.691      65.000
 88.701      65.000
 88.711      65.000
 88.721      65.000
 88.731      65.000
 88.741      65.000
 88.751      65.000
 88.762      65.000
 88.772      65.000
 88.782      65.000
 88.792      65.000
 88.802      65.000
 88.812      65.000
 88.822      65.000
 88.832      65.000
 88.842      65.000
 88.852      65.000
 88.862      65.000
 88.872      65.000
 88.882      65.000
 88.892      65.000
 88.902      65.000
 88.912      65.000
 88.922      65.000
 88.932      65.000
 88.942      65.000
 88.952      65.000
 88.962      65.000
 88.972      65.000
 88.982      65.000
 88.992      65.000
 89.002      65.000
 89.012      65.000
 89.022      65.000
 89.032      65.000
 89.042      65.000
 89.052      65.000
 89.062      65.000
 89.072      65.000
 89.082      65.000
 89.092      65.000
 89.102      65.000
 89.112      65.000
 89.122      65.000
 89.132      65.000
 89.142      65.000
 89.152      65.000
 89.162      65.000
 89.172      65.000
 89.182      65.000
 89.192      65.000
 89.202      65.000
 89.212      65.000
 89.222      65.000
 89.232      65.000
 89.242      65.000
 89.252      65.000
 89.262      65.000
 89.272      65.000
 89.282      65.000
 89.292      65.000
 89.302      65.000
 89.313      65.000
 89.323      65.000
 89.333      65.000
 89.343      65.000
 89.353      65.000
 89.363      65.000
 89.373      65.000
 89.383      65.000
 89.393      65.000
 89.403      65.000
 89.413      65.000
 89.423      65.000
 89.433      65.000
 89.443      65.000
 89.453      65.000
 89.463      65.000
 89.473      65.000
 89.483      65.000
 89.493      65.000
 89.503      65.000
 89.513      65.000
 89.523      65.000
 89.533      65.000
 89.543      65.000
 89.553      65.000
 89.563      65.000
 89.573      65.000
 89.583      65.000
 89.593      65.000
 89.603      65.000
 89.613      65.000
 89.623      65.000
 89.633      65.000
 89.643      65.000
 89.653      65.000
 89.663      65.000
 89.673      65.000
 89.683      65.000
 89.693      65.000
 89.703      65.000
 89.713      65.000
 89.723      65.000
 89.733      65.000
 89.743      65.000
 89.753      65.000
 89.763      65.000
 89.773      65.000
 89.783      65.000
 89.793      65.000
 89.803      65.000
 89.813      65.000
 89.823      65.000
 89.833      65.000
 89.843      65.000
 89.853      65.000
 89.863      65.000
 89.874      65.000
 89.884      65.000
 89.894      65.000
 89.904      65.000
 89.914      65.000
 89.924      65.000
 89.934      65.000
 89.944      65.000
 89.954      65.000
 89.964      65.000
 89.974      65.000
 89.984      65.000
 89.994      65.000
 90.004      65.000
