2theta /stopnie	natê¿enie/jednostki umowne
 10.000      52.000
 10.010      52.000
 10.020      52.000
 10.030      52.000
 10.040      52.000
 10.050      52.000
 10.060      52.000
 10.070      52.000
 10.080      52.000
 10.090      52.000
 10.100      52.000
 10.110      52.000
 10.120      52.000
 10.130      52.000
 10.140      52.000
 10.150      52.000
 10.160      52.000
 10.170      52.000
 10.180      52.000
 10.190      52.000
 10.200      52.000
 10.210      52.000
 10.220      52.000
 10.230      52.000
 10.240      52.000
 10.250      52.000
 10.260      52.000
 10.270      52.000
 10.281      52.000
 10.291      52.000
 10.301      52.000
 10.311      52.000
 10.321      52.000
 10.331      52.000
 10.341      52.000
 10.351      52.000
 10.361      52.000
 10.371      52.000
 10.381      52.000
 10.391      52.000
 10.401      52.000
 10.411      52.000
 10.421      52.000
 10.431      52.000
 10.441      52.000
 10.451      52.000
 10.461      52.000
 10.471      52.000
 10.481      52.000
 10.491      52.000
 10.501      52.000
 10.511      52.000
 10.521      52.000
 10.531      52.000
 10.541      52.000
 10.551      52.000
 10.561      52.000
 10.571      52.000
 10.581      52.000
 10.591      52.000
 10.601      52.000
 10.611      52.000
 10.621      52.000
 10.631      52.000
 10.641      52.000
 10.651      52.000
 10.661      52.000
 10.671      52.000
 10.681      52.000
 10.691      52.000
 10.701      52.000
 10.711      52.000
 10.721      52.000
 10.731      52.000
 10.741      52.000
 10.751      52.000
 10.761      52.000
 10.771      52.000
 10.781      52.000
 10.791      52.000
 10.801      52.000
 10.811      52.000
 10.821      52.000
 10.831      52.000
 10.842      52.000
 10.852      52.000
 10.862      52.000
 10.872      52.000
 10.882      52.000
 10.892      52.000
 10.902      52.000
 10.912      52.000
 10.922      52.000
 10.932      52.000
 10.942      52.000
 10.952      52.000
 10.962      52.000
 10.972      52.000
 10.982      52.000
 10.992      52.000
 11.002      52.000
 11.012      52.000
 11.022      52.000
 11.032      52.000
 11.042      52.000
 11.052      52.000
 11.062      52.000
 11.072      52.000
 11.082      52.000
 11.092      52.000
 11.102      52.000
 11.112      52.000
 11.122      52.000
 11.132      52.000
 11.142      52.000
 11.152      52.000
 11.162      52.000
 11.172      52.000
 11.182      52.000
 11.192      52.000
 11.202      52.000
 11.212      52.000
 11.222      52.000
 11.232      52.000
 11.242      52.000
 11.252      52.000
 11.262      52.000
 11.272      52.000
 11.282      52.000
 11.292      52.000
 11.302      52.000
 11.312      52.000
 11.322      52.000
 11.332      52.000
 11.342      52.000
 11.352      52.000
 11.362      52.000
 11.372      52.000
 11.382      52.000
 11.393      52.000
 11.403      52.000
 11.413      52.000
 11.423      52.000
 11.433      52.000
 11.443      52.000
 11.453      52.000
 11.463      52.000
 11.473      52.000
 11.483      52.000
 11.493      52.000
 11.503      52.000
 11.513      52.000
 11.523      52.000
 11.533      52.000
 11.543      52.000
 11.553      52.000
 11.563      52.000
 11.573      52.000
 11.583      52.000
 11.593      52.000
 11.603      52.000
 11.613      52.000
 11.623      52.000
 11.633      52.000
 11.643      52.000
 11.653      52.000
 11.663      52.000
 11.673      52.000
 11.683      52.000
 11.693      52.000
 11.703      52.000
 11.713      52.000
 11.723      52.000
 11.733      52.000
 11.743      52.000
 11.753      52.000
 11.763      52.000
 11.773      52.000
 11.783      52.000
 11.793      52.000
 11.803      52.000
 11.813      52.000
 11.823      52.000
 11.833      52.000
 11.843      52.000
 11.853      52.000
 11.863      52.000
 11.873      52.000
 11.883      52.000
 11.893      52.000
 11.903      52.000
 11.913      52.000
 11.923      52.000
 11.933      52.000
 11.943      52.000
 11.954      52.000
 11.964      52.000
 11.974      52.000
 11.984      52.000
 11.994      52.000
 12.004      52.000
 12.014      52.000
 12.024      52.000
 12.034      52.000
 12.044      52.000
 12.054      52.000
 12.064      52.000
 12.074      52.000
 12.084      52.000
 12.094      52.000
 12.104      52.000
 12.114      52.000
 12.124      52.000
 12.134      52.000
 12.144      52.000
 12.154      52.000
 12.164      52.000
 12.174      52.000
 12.184      52.000
 12.194      52.000
 12.204      52.000
 12.214      52.000
 12.224      52.000
 12.234      52.000
 12.244      52.000
 12.254      52.000
 12.264      52.000
 12.274      52.000
 12.284      52.000
 12.294      52.000
 12.304      52.000
 12.314      52.000
 12.324      52.000
 12.334      52.000
 12.344      52.000
 12.354      52.000
 12.364      52.000
 12.374      52.000
 12.384      52.000
 12.394      52.000
 12.404      52.000
 12.414      52.000
 12.424      52.000
 12.434      52.000
 12.444      52.000
 12.454      52.000
 12.464      52.000
 12.474      52.000
 12.484      52.000
 12.494      52.000
 12.505      52.000
 12.515      52.000
 12.525      52.000
 12.535      52.000
 12.545      52.000
 12.555      52.000
 12.565      52.000
 12.575      52.000
 12.585      52.000
 12.595      52.000
 12.605      52.000
 12.615      52.000
 12.625      52.000
 12.635      52.000
 12.645      52.000
 12.655      52.000
 12.665      52.000
 12.675      52.000
 12.685      52.000
 12.695      52.000
 12.705      52.000
 12.715      52.000
 12.725      52.000
 12.735      52.000
 12.745      52.000
 12.755      52.000
 12.765      52.000
 12.775      52.000
 12.785      52.000
 12.795      52.000
 12.805      52.000
 12.815      52.000
 12.825      52.000
 12.835      52.000
 12.845      52.000
 12.855      52.000
 12.865      52.000
 12.875      52.000
 12.885      52.000
 12.895      52.000
 12.905      52.000
 12.915      52.000
 12.925      52.000
 12.935      52.000
 12.945      52.000
 12.955      52.000
 12.965      52.000
 12.975      52.000
 12.985      52.000
 12.995      52.000
 13.005      52.000
 13.015      52.000
 13.025      52.000
 13.035      52.000
 13.045      52.000
 13.055      52.000
 13.066      52.000
 13.076      52.000
 13.086      52.000
 13.096      52.000
 13.106      52.000
 13.116      52.000
 13.126      52.000
 13.136      52.000
 13.146      52.000
 13.156      52.000
 13.166      52.000
 13.176      52.000
 13.186      52.000
 13.196      52.000
 13.206      52.000
 13.216      52.000
 13.226      52.000
 13.236      52.000
 13.246      52.000
 13.256      52.000
 13.266      52.000
 13.276      52.000
 13.286      52.000
 13.296      52.000
 13.306      52.000
 13.316      52.000
 13.326      52.000
 13.336      52.000
 13.346      52.000
 13.356      52.000
 13.366      52.000
 13.376      52.000
 13.386      52.000
 13.396      52.000
 13.406      52.000
 13.416      52.000
 13.426      52.000
 13.436      52.000
 13.446      52.000
 13.456      52.000
 13.466      52.000
 13.476      52.000
 13.486      52.000
 13.496      52.000
 13.506      52.000
 13.516      52.000
 13.526      52.000
 13.536      52.000
 13.546      52.000
 13.556      52.000
 13.566      52.000
 13.576      52.000
 13.586      52.000
 13.596      52.000
 13.606      52.000
 13.616      52.000
 13.627      52.000
 13.637      52.000
 13.647      52.000
 13.657      52.000
 13.667      52.000
 13.677      52.000
 13.687      52.000
 13.697      52.000
 13.707      52.000
 13.717      52.000
 13.727      52.000
 13.737      52.000
 13.747      52.000
 13.757      52.000
 13.767      52.000
 13.777      52.000
 13.787      52.000
 13.797      52.000
 13.807      52.000
 13.817      52.000
 13.827      52.000
 13.837      52.000
 13.847      52.000
 13.857      52.000
 13.867      52.000
 13.877      52.000
 13.887      52.000
 13.897      52.000
 13.907      52.000
 13.917      52.000
 13.927      52.000
 13.937      52.000
 13.947      52.000
 13.957      52.000
 13.967      52.000
 13.977      52.000
 13.987      52.000
 13.997      52.000
 14.007      52.000
 14.017      52.000
 14.027      52.000
 14.037      52.000
 14.047      52.000
 14.057      52.000
 14.067      52.000
 14.077      52.000
 14.087      52.000
 14.097      52.000
 14.107      52.000
 14.117      52.000
 14.127      52.000
 14.137      52.000
 14.147      52.000
 14.157      52.000
 14.167      52.000
 14.178      52.000
 14.188      52.000
 14.198      52.000
 14.208      52.000
 14.218      52.000
 14.228      52.000
 14.238      52.000
 14.248      52.000
 14.258      52.000
 14.268      52.000
 14.278      52.000
 14.288      52.000
 14.298      52.000
 14.308      52.000
 14.318      52.000
 14.328      52.000
 14.338      52.000
 14.348      52.000
 14.358      52.000
 14.368      52.000
 14.378      52.000
 14.388      52.000
 14.398      52.000
 14.408      52.000
 14.418      52.000
 14.428      52.000
 14.438      52.000
 14.448      52.000
 14.458      52.000
 14.468      52.000
 14.478      52.000
 14.488      52.000
 14.498      52.000
 14.508      52.000
 14.518      52.000
 14.528      52.000
 14.538      52.000
 14.548      52.000
 14.558      52.000
 14.568      52.000
 14.578      52.000
 14.588      52.000
 14.598      52.000
 14.608      52.000
 14.618      52.000
 14.628      52.000
 14.638      52.000
 14.648      52.000
 14.658      52.000
 14.668      52.000
 14.678      52.000
 14.688      52.000
 14.698      52.000
 14.708      52.000
 14.718      52.000
 14.728      52.000
 14.739      52.000
 14.749      52.000
 14.759      52.000
 14.769      52.000
 14.779      52.000
 14.789      52.000
 14.799      52.000
 14.809      52.000
 14.819      52.000
 14.829      52.000
 14.839      52.000
 14.849      52.000
 14.859      52.000
 14.869      52.000
 14.879      52.000
 14.889      52.000
 14.899      52.000
 14.909      52.000
 14.919      52.000
 14.929      52.000
 14.939      52.000
 14.949      52.000
 14.959      52.000
 14.969      52.000
 14.979      52.000
 14.989      52.000
 14.999      52.000
 15.009      52.000
 15.019      52.000
 15.029      52.000
 15.039      52.000
 15.049      52.000
 15.059      52.000
 15.069      52.000
 15.079      52.000
 15.089      52.000
 15.099      52.000
 15.109      52.000
 15.119      52.000
 15.129      52.000
 15.139      52.000
 15.149      52.000
 15.159      52.000
 15.169      52.000
 15.179      52.000
 15.189      52.000
 15.199      52.000
 15.209      52.000
 15.219      52.000
 15.229      52.000
 15.239      52.000
 15.249      52.000
 15.259      52.000
 15.269      52.000
 15.279      52.000
 15.290      52.000
 15.300      52.000
 15.310      52.000
 15.320      52.000
 15.330      52.000
 15.340      52.000
 15.350      52.000
 15.360      52.000
 15.370      52.000
 15.380      52.000
 15.390      52.000
 15.400      52.000
 15.410      52.000
 15.420      52.000
 15.430      52.000
 15.440      52.000
 15.450      52.000
 15.460      52.000
 15.470      52.000
 15.480      52.000
 15.490      52.000
 15.500      52.000
 15.510      52.000
 15.520      52.000
 15.530      52.000
 15.540      52.000
 15.550      52.000
 15.560      52.000
 15.570      52.000
 15.580      52.000
 15.590      52.000
 15.600      52.000
 15.610      52.000
 15.620      52.000
 15.630      52.000
 15.640      52.000
 15.650      52.000
 15.660      52.000
 15.670      52.000
 15.680      52.000
 15.690      52.000
 15.700      52.000
 15.710      52.000
 15.720      52.000
 15.730      52.000
 15.740      52.000
 15.750      52.000
 15.760      52.000
 15.770      52.000
 15.780      52.000
 15.790      52.000
 15.800      52.000
 15.810      52.000
 15.820      52.000
 15.830      52.000
 15.840      52.000
 15.851      52.000
 15.861      52.000
 15.871      52.000
 15.881      52.000
 15.891      52.000
 15.901      52.000
 15.911      52.000
 15.921      52.000
 15.931      52.000
 15.941      52.000
 15.951      52.000
 15.961      52.000
 15.971      52.000
 15.981      52.000
 15.991      52.000
 16.001      52.000
 16.011      52.000
 16.021      52.000
 16.031      52.000
 16.041      52.000
 16.051      52.000
 16.061      52.000
 16.071      52.000
 16.081      52.000
 16.091      52.000
 16.101      52.000
 16.111      52.000
 16.121      52.000
 16.131      52.000
 16.141      52.000
 16.151      52.000
 16.161      52.000
 16.171      52.000
 16.181      52.000
 16.191      52.000
 16.201      52.000
 16.211      52.000
 16.221      52.000
 16.231      52.000
 16.241      52.000
 16.251      52.000
 16.261      52.000
 16.271      52.000
 16.281      52.000
 16.291      52.000
 16.301      52.000
 16.311      52.000
 16.321      52.000
 16.331      52.000
 16.341      52.000
 16.351      52.000
 16.361      52.000
 16.371      52.000
 16.381      52.000
 16.391      52.000
 16.402      52.000
 16.412      52.000
 16.422      52.000
 16.432      52.000
 16.442      52.000
 16.452      52.000
 16.462      52.000
 16.472      52.000
 16.482      52.000
 16.492      52.000
 16.502      52.000
 16.512      52.000
 16.522      52.000
 16.532      52.000
 16.542      52.000
 16.552      52.000
 16.562      52.000
 16.572      52.000
 16.582      52.000
 16.592      52.000
 16.602      52.000
 16.612      52.000
 16.622      52.000
 16.632      52.000
 16.642      52.000
 16.652      52.000
 16.662      52.000
 16.672      52.000
 16.682      52.000
 16.692      52.000
 16.702      52.000
 16.712      52.000
 16.722      52.000
 16.732      52.000
 16.742      52.000
 16.752      52.000
 16.762      52.000
 16.772      52.000
 16.782      52.000
 16.792      52.000
 16.802      52.000
 16.812      52.000
 16.822      52.000
 16.832      52.000
 16.842      52.000
 16.852      52.000
 16.862      52.000
 16.872      52.000
 16.882      52.000
 16.892      52.000
 16.902      52.000
 16.912      52.000
 16.922      52.000
 16.932      52.000
 16.942      52.000
 16.952      52.000
 16.963      52.000
 16.973      52.000
 16.983      52.000
 16.993      52.000
 17.003      52.000
 17.013      52.000
 17.023      52.000
 17.033      52.000
 17.043      52.000
 17.053      52.000
 17.063      52.000
 17.073      52.000
 17.083      52.000
 17.093      52.000
 17.103      52.000
 17.113      52.000
 17.123      52.000
 17.133      52.000
 17.143      52.000
 17.153      52.000
 17.163      52.000
 17.173      52.000
 17.183      52.000
 17.193      52.000
 17.203      52.000
 17.213      52.000
 17.223      52.000
 17.233      52.000
 17.243      52.000
 17.253      52.000
 17.263      52.000
 17.273      52.000
 17.283      52.000
 17.293      52.000
 17.303      52.000
 17.313      52.000
 17.323      52.000
 17.333      52.000
 17.343      52.000
 17.353      52.000
 17.363      52.000
 17.373      52.000
 17.383      52.000
 17.393      52.000
 17.403      52.000
 17.413      52.000
 17.423      52.000
 17.433      52.000
 17.443      52.000
 17.453      52.000
 17.463      52.000
 17.473      52.000
 17.483      52.000
 17.493      52.000
 17.503      52.000
 17.514      52.000
 17.524      52.000
 17.534      52.000
 17.544      52.000
 17.554      52.000
 17.564      52.000
 17.574      52.000
 17.584      52.000
 17.594      52.000
 17.604      52.000
 17.614      52.000
 17.624      52.000
 17.634      52.000
 17.644      52.000
 17.654      52.000
 17.664      52.000
 17.674      52.000
 17.684      52.000
 17.694      52.000
 17.704      52.000
 17.714      52.000
 17.724      52.000
 17.734      52.000
 17.744      52.000
 17.754      52.000
 17.764      52.000
 17.774      52.000
 17.784      52.000
 17.794      52.000
 17.804      52.000
 17.814      52.000
 17.824      52.000
 17.834      52.000
 17.844      52.000
 17.854      52.000
 17.864      52.000
 17.874      52.000
 17.884      52.000
 17.894      52.000
 17.904      52.000
 17.914      52.000
 17.924      52.000
 17.934      52.000
 17.944      52.000
 17.954      52.000
 17.964      52.000
 17.974      52.000
 17.984      52.000
 17.994      52.000
 18.004      52.000
 18.014      52.000
 18.024      52.000
 18.034      52.000
 18.044      52.000
 18.054      52.000
 18.064      52.000
 18.075      52.000
 18.085      52.000
 18.095      52.000
 18.105      52.000
 18.115      52.000
 18.125      52.000
 18.135      52.000
 18.145      52.000
 18.155      52.000
 18.165      52.000
 18.175      52.000
 18.185      52.000
 18.195      52.000
 18.205      52.000
 18.215      52.000
 18.225      52.000
 18.235      52.000
 18.245      52.000
 18.255      52.000
 18.265      52.000
 18.275      52.000
 18.285      52.000
 18.295      52.000
 18.305      52.000
 18.315      52.000
 18.325      52.000
 18.335      52.000
 18.345      52.000
 18.355      52.000
 18.365      52.000
 18.375      52.000
 18.385      52.000
 18.395      52.000
 18.405      52.000
 18.415      52.000
 18.425      52.000
 18.435      52.000
 18.445      52.000
 18.455      52.000
 18.465      52.000
 18.475      52.000
 18.485      52.000
 18.495      52.000
 18.505      52.000
 18.515      52.000
 18.525      52.000
 18.535      52.000
 18.545      52.000
 18.555      52.000
 18.565      52.000
 18.575      52.000
 18.585      52.000
 18.595      52.000
 18.605      52.000
 18.615      52.000
 18.625      52.000
 18.636      52.000
 18.646      52.000
 18.656      52.000
 18.666      52.000
 18.676      52.000
 18.686      52.000
 18.696      52.000
 18.706      52.000
 18.716      52.000
 18.726      52.000
 18.736      52.000
 18.746      52.000
 18.756      52.000
 18.766      52.000
 18.776      52.000
 18.786      52.000
 18.796      52.000
 18.806      52.000
 18.816      52.000
 18.826      52.000
 18.836      52.000
 18.846      52.000
 18.856      52.000
 18.866      52.000
 18.876      52.000
 18.886      52.000
 18.896      52.000
 18.906      52.000
 18.916      52.000
 18.926      52.000
 18.936      52.000
 18.946      52.000
 18.956      52.000
 18.966      52.000
 18.976      52.000
 18.986      52.000
 18.996      52.000
 19.006      52.000
 19.016      52.000
 19.026      52.000
 19.036      52.000
 19.046      52.000
 19.056      52.000
 19.066      52.000
 19.076      52.000
 19.086      52.000
 19.096      52.000
 19.106      52.000
 19.116      52.000
 19.126      52.000
 19.136      52.000
 19.146      52.000
 19.156      52.000
 19.166      52.000
 19.176      52.000
 19.187      52.000
 19.197      52.000
 19.207      52.000
 19.217      52.000
 19.227      52.000
 19.237      52.000
 19.247      52.000
 19.257      52.000
 19.267      52.000
 19.277      52.000
 19.287      52.000
 19.297      52.000
 19.307      52.000
 19.317      52.000
 19.327      52.000
 19.337      52.000
 19.347      52.000
 19.357      52.000
 19.367      52.000
 19.377      52.000
 19.387      52.000
 19.397      52.000
 19.407      52.000
 19.417      52.000
 19.427      52.000
 19.437      52.000
 19.447      52.000
 19.457      52.000
 19.467      52.000
 19.477      52.000
 19.487      52.000
 19.497      52.000
 19.507      52.000
 19.517      52.000
 19.527      52.000
 19.537      52.000
 19.547      52.000
 19.557      52.000
 19.567      52.000
 19.577      52.000
 19.587      52.000
 19.597      52.000
 19.607      52.000
 19.617      52.000
 19.627      52.000
 19.637      52.000
 19.647      52.000
 19.657      52.000
 19.667      52.000
 19.677      52.000
 19.687      52.000
 19.697      52.000
 19.707      52.000
 19.717      52.000
 19.727      52.000
 19.737      52.000
 19.748      52.000
 19.758      52.000
 19.768      52.000
 19.778      52.000
 19.788      52.000
 19.798      52.000
 19.808      52.000
 19.818      52.000
 19.828      52.000
 19.838      52.000
 19.848      52.000
 19.858      52.000
 19.868      52.000
 19.878      52.000
 19.888      52.000
 19.898      52.000
 19.908      52.000
 19.918      52.000
 19.928      52.000
 19.938      52.000
 19.948      52.000
 19.958      52.000
 19.968      52.000
 19.978      52.000
 19.988      52.000
 19.998      52.000
 20.008      52.000
 20.018      52.000
 20.028      52.000
 20.038      52.000
 20.048      52.000
 20.058      52.000
 20.068      52.000
 20.078      52.000
 20.088      52.000
 20.098      52.000
 20.108      52.000
 20.118      52.000
 20.128      52.000
 20.138      52.000
 20.148      52.000
 20.158      52.000
 20.168      52.000
 20.178      52.000
 20.188      52.000
 20.198      52.000
 20.208      52.000
 20.218      52.000
 20.228      52.000
 20.238      52.000
 20.248      52.000
 20.258      52.000
 20.268      52.000
 20.278      52.000
 20.288      52.000
 20.299      52.000
 20.309      52.000
 20.319      52.000
 20.329      52.000
 20.339      52.000
 20.349      52.000
 20.359      52.000
 20.369      52.000
 20.379      52.000
 20.389      52.000
 20.399      52.000
 20.409      52.000
 20.419      52.000
 20.429      52.000
 20.439      52.000
 20.449      52.000
 20.459      52.000
 20.469      52.000
 20.479      52.000
 20.489      52.000
 20.499      52.000
 20.509      52.000
 20.519      52.000
 20.529      52.000
 20.539      52.000
 20.549      52.000
 20.559      52.000
 20.569      52.000
 20.579      52.000
 20.589      52.000
 20.599      52.000
 20.609      52.000
 20.619      52.000
 20.629      52.000
 20.639      52.000
 20.649      52.000
 20.659      52.000
 20.669      52.000
 20.679      52.000
 20.689      52.000
 20.699      52.000
 20.709      52.000
 20.719      52.000
 20.729      52.000
 20.739      52.000
 20.749      52.000
 20.759      52.000
 20.769      52.000
 20.779      52.000
 20.789      52.000
 20.799      52.000
 20.809      52.000
 20.819      52.000
 20.829      52.000
 20.839      52.000
 20.849      52.000
 20.860      52.000
 20.870      52.000
 20.880      52.000
 20.890      52.000
 20.900      52.000
 20.910      52.000
 20.920      52.000
 20.930      52.000
 20.940      52.000
 20.950      52.000
 20.960      52.000
 20.970      52.000
 20.980      52.000
 20.990      52.000
 21.000      52.000
 21.010      52.000
 21.020      52.000
 21.030      52.000
 21.040      52.000
 21.050      52.000
 21.060      52.000
 21.070      52.000
 21.080      52.000
 21.090      52.000
 21.100      52.000
 21.110      52.000
 21.120      52.000
 21.130      52.000
 21.140      52.000
 21.150      52.000
 21.160      52.000
 21.170      52.000
 21.180      52.000
 21.190      52.000
 21.200      52.000
 21.210      52.000
 21.220      52.000
 21.230      52.000
 21.240      52.000
 21.250      52.000
 21.260      52.000
 21.270      52.000
 21.280      52.000
 21.290      52.000
 21.300      52.000
 21.310      52.000
 21.320      52.000
 21.330      52.000
 21.340      52.000
 21.350      52.000
 21.360      52.000
 21.370      52.000
 21.380      52.000
 21.390      52.000
 21.400      52.000
 21.411      52.000
 21.421      52.000
 21.431      52.000
 21.441      52.000
 21.451      52.000
 21.461      52.000
 21.471      52.000
 21.481      52.000
 21.491      52.000
 21.501      52.000
 21.511      52.000
 21.521      52.000
 21.531      52.000
 21.541      52.000
 21.551      52.000
 21.561      52.000
 21.571      52.000
 21.581      52.000
 21.591      52.000
 21.601      52.000
 21.611      52.000
 21.621      52.000
 21.631      52.000
 21.641      52.000
 21.651      52.000
 21.661      52.000
 21.671      52.000
 21.681      52.000
 21.691      52.000
 21.701      52.000
 21.711      52.000
 21.721      52.000
 21.731      52.000
 21.741      52.000
 21.751      52.000
 21.761      52.000
 21.771      52.000
 21.781      52.000
 21.791      52.000
 21.801      52.000
 21.811      52.000
 21.821      52.000
 21.831      52.000
 21.841      52.000
 21.851      52.000
 21.861      52.000
 21.871      52.000
 21.881      52.000
 21.891      52.000
 21.901      52.000
 21.911      52.000
 21.921      52.000
 21.931      52.000
 21.941      52.000
 21.951      52.000
 21.961      52.000
 21.972      52.000
 21.982      52.000
 21.992      52.000
 22.002      52.000
 22.012      52.000
 22.022      52.000
 22.032      52.000
 22.042      52.000
 22.052      52.000
 22.062      52.000
 22.072      52.000
 22.082      52.000
 22.092      52.000
 22.102      52.000
 22.112      52.000
 22.122      52.000
 22.132      52.000
 22.142      52.000
 22.152      52.000
 22.162      52.000
 22.172      52.000
 22.182      52.000
 22.192      52.000
 22.202      52.000
 22.212      52.000
 22.222      52.000
 22.232      52.000
 22.242      52.000
 22.252      52.000
 22.262      52.000
 22.272      52.000
 22.282      52.000
 22.292      52.000
 22.302      52.000
 22.312      52.000
 22.322      52.000
 22.332      52.000
 22.342      52.000
 22.352      52.000
 22.362      52.000
 22.372      52.000
 22.382      52.000
 22.392      52.000
 22.402      52.000
 22.412      52.000
 22.422      52.000
 22.432      52.000
 22.442      52.000
 22.452      52.000
 22.462      52.000
 22.472      52.000
 22.482      52.000
 22.492      52.000
 22.502      52.000
 22.512      52.000
 22.522      52.000
 22.533      52.000
 22.543      52.000
 22.553      52.000
 22.563      52.000
 22.573      52.000
 22.583      52.000
 22.593      52.000
 22.603      52.000
 22.613      52.000
 22.623      52.000
 22.633      52.000
 22.643      52.000
 22.653      52.000
 22.663      52.000
 22.673      52.000
 22.683      52.000
 22.693      52.000
 22.703      52.000
 22.713      52.000
 22.723      52.000
 22.733      52.000
 22.743      52.000
 22.753      52.000
 22.763      52.000
 22.773      52.000
 22.783      52.000
 22.793      52.000
 22.803      52.000
 22.813      52.000
 22.823      52.000
 22.833      52.000
 22.843      52.000
 22.853      52.000
 22.863      52.000
 22.873      52.000
 22.883      52.000
 22.893      52.000
 22.903      52.000
 22.913      52.000
 22.923      52.000
 22.933      52.000
 22.943      52.000
 22.953      52.000
 22.963      52.000
 22.973      52.000
 22.983      52.000
 22.993      52.000
 23.003      52.000
 23.013      52.000
 23.023      52.000
 23.033      52.000
 23.043      52.000
 23.053      52.000
 23.063      52.000
 23.073      52.000
 23.084      52.000
 23.094      52.000
 23.104      52.000
 23.114      52.000
 23.124      52.000
 23.134      52.000
 23.144      52.000
 23.154      52.000
 23.164      52.000
 23.174      52.000
 23.184      52.000
 23.194      52.000
 23.204      52.000
 23.214      52.000
 23.224      52.000
 23.234      52.000
 23.244      52.000
 23.254      52.000
 23.264      52.000
 23.274      52.000
 23.284      52.000
 23.294      52.000
 23.304      52.000
 23.314      52.000
 23.324      52.000
 23.334      52.000
 23.344      52.000
 23.354      52.000
 23.364      52.000
 23.374      52.000
 23.384      52.000
 23.394      52.000
 23.404      52.000
 23.414      52.000
 23.424      52.000
 23.434      52.000
 23.444      52.000
 23.454      52.000
 23.464      52.000
 23.474      52.000
 23.484      52.000
 23.494      52.000
 23.504      52.000
 23.514      52.000
 23.524      52.000
 23.534      52.000
 23.544      52.000
 23.554      52.000
 23.564      52.000
 23.574      52.000
 23.584      52.000
 23.594      52.000
 23.604      52.000
 23.614      52.000
 23.624      52.000
 23.634      52.000
 23.645      52.000
 23.655      52.000
 23.665      52.000
 23.675      52.000
 23.685      52.000
 23.695      52.000
 23.705      52.000
 23.715      52.000
 23.725      52.000
 23.735      52.000
 23.745      52.000
 23.755      52.000
 23.765      52.000
 23.775      52.000
 23.785      52.000
 23.795      52.000
 23.805      52.000
 23.815      52.000
 23.825      52.000
 23.835      52.000
 23.845      52.000
 23.855      52.000
 23.865      52.000
 23.875      52.000
 23.885      52.000
 23.895      52.000
 23.905      52.000
 23.915      52.000
 23.925      52.000
 23.935      52.000
 23.945      52.000
 23.955      52.000
 23.965      52.000
 23.975      52.000
 23.985      52.000
 23.995      52.000
 24.005      52.000
 24.015      52.000
 24.025      52.000
 24.035      52.000
 24.045      52.000
 24.055      52.000
 24.065      52.000
 24.075      52.000
 24.085      52.000
 24.095      52.000
 24.105      52.000
 24.115      52.000
 24.125      52.000
 24.135      52.000
 24.145      52.000
 24.155      52.000
 24.165      52.000
 24.175      52.000
 24.185      52.000
 24.196      52.000
 24.206      52.000
 24.216      52.000
 24.226      52.000
 24.236      52.000
 24.246      52.000
 24.256      52.000
 24.266      52.000
 24.276      52.000
 24.286      52.000
 24.296      52.000
 24.306      52.000
 24.316      52.000
 24.326      52.000
 24.336      52.000
 24.346      52.000
 24.356      52.000
 24.366      52.000
 24.376      52.000
 24.386      52.000
 24.396      52.000
 24.406      52.000
 24.416      52.000
 24.426      52.000
 24.436      52.000
 24.446      52.000
 24.456      52.000
 24.466      52.000
 24.476      52.000
 24.486      52.000
 24.496      52.000
 24.506      52.000
 24.516      52.000
 24.526      52.000
 24.536      52.000
 24.546      52.000
 24.556      52.000
 24.566      52.000
 24.576      52.000
 24.586      52.000
 24.596      52.000
 24.606      52.000
 24.616      52.000
 24.626      52.000
 24.636      52.000
 24.646      52.000
 24.656      52.000
 24.666      52.000
 24.676      52.000
 24.686      52.000
 24.696      52.000
 24.706      52.000
 24.716      52.000
 24.726      52.000
 24.736      52.000
 24.746      52.000
 24.757      52.000
 24.767      52.000
 24.777      52.000
 24.787      52.000
 24.797      52.000
 24.807      52.000
 24.817      52.000
 24.827      52.000
 24.837      52.000
 24.847      52.000
 24.857      52.000
 24.867      52.000
 24.877      52.000
 24.887      52.000
 24.897      52.000
 24.907      52.000
 24.917      52.000
 24.927      52.000
 24.937      52.000
 24.947      52.000
 24.957      52.000
 24.967      52.000
 24.977      52.000
 24.987      52.000
 24.997      52.000
 25.007      52.000
 25.017      52.000
 25.027      52.000
 25.037      52.000
 25.047      52.000
 25.057      52.000
 25.067      52.000
 25.077      52.000
 25.087      52.000
 25.097      52.000
 25.107      52.000
 25.117      52.000
 25.127      52.000
 25.137      52.000
 25.147      52.000
 25.157      52.000
 25.167      52.000
 25.177      52.000
 25.187      52.000
 25.197      52.000
 25.207      52.000
 25.217      52.000
 25.227      52.000
 25.237      52.000
 25.247      52.000
 25.257      52.000
 25.267      52.000
 25.277      52.000
 25.287      52.000
 25.297      52.000
 25.308      52.000
 25.318      52.000
 25.328      52.000
 25.338      52.000
 25.348      52.000
 25.358      52.000
 25.368      52.000
 25.378      52.000
 25.388      52.000
 25.398      52.000
 25.408      52.000
 25.418      52.000
 25.428      52.000
 25.438      52.000
 25.448      52.000
 25.458      52.000
 25.468      52.000
 25.478      52.000
 25.488      52.000
 25.498      52.000
 25.508      52.000
 25.518      52.000
 25.528      52.000
 25.538      52.000
 25.548      52.000
 25.558      52.000
 25.568      52.000
 25.578      52.000
 25.588      52.000
 25.598      52.000
 25.608      52.000
 25.618      52.000
 25.628      52.000
 25.638      52.000
 25.648      52.000
 25.658      52.000
 25.668      52.000
 25.678      52.000
 25.688      52.000
 25.698      52.000
 25.708      52.000
 25.718      52.000
 25.728      52.000
 25.738      52.000
 25.748      52.000
 25.758      52.000
 25.768      52.000
 25.778      52.000
 25.788      52.000
 25.798      52.000
 25.808      52.000
 25.818      52.000
 25.828      52.000
 25.838      52.000
 25.848      52.000
 25.858      52.000
 25.869      52.000
 25.879      52.000
 25.889      52.000
 25.899      52.000
 25.909      52.000
 25.919      52.000
 25.929      52.000
 25.939      52.000
 25.949      52.000
 25.959      52.000
 25.969      52.000
 25.979      52.000
 25.989      52.000
 25.999      52.000
 26.009      52.000
 26.019      52.000
 26.029      52.000
 26.039      52.000
 26.049      52.000
 26.059      52.000
 26.069      52.000
 26.079      52.000
 26.089      52.000
 26.099      52.000
 26.109      52.000
 26.119      52.000
 26.129      52.000
 26.139      52.000
 26.149      52.000
 26.159      52.000
 26.169      52.000
 26.179      52.000
 26.189      52.000
 26.199      52.000
 26.209      52.000
 26.219      52.000
 26.229      52.000
 26.239      52.000
 26.249      52.000
 26.259      52.000
 26.269      52.000
 26.279      52.000
 26.289      52.000
 26.299      52.000
 26.309      52.000
 26.319      52.000
 26.329      52.000
 26.339      52.000
 26.349      52.000
 26.359      52.000
 26.369      52.000
 26.379      52.000
 26.389      52.000
 26.399      52.000
 26.409      52.000
 26.420      52.000
 26.430      52.000
 26.440      52.000
 26.450      52.000
 26.460      52.000
 26.470      52.000
 26.480      52.000
 26.490      52.000
 26.500      52.000
 26.510      52.000
 26.520      52.000
 26.530      52.000
 26.540      52.000
 26.550      52.000
 26.560      52.000
 26.570      52.000
 26.580      52.000
 26.590      52.000
 26.600      52.000
 26.610      52.000
 26.620      52.000
 26.630      52.000
 26.640      52.000
 26.650      52.000
 26.660      52.000
 26.670      52.000
 26.680      52.000
 26.690      52.000
 26.700      52.000
 26.710      52.000
 26.720      52.000
 26.730      52.000
 26.740      52.000
 26.750      52.000
 26.760      52.000
 26.770      52.000
 26.780      52.000
 26.790      52.000
 26.800      52.000
 26.810      52.000
 26.820      52.000
 26.830      52.000
 26.840      52.000
 26.850      52.000
 26.860      52.000
 26.870      52.000
 26.880      52.000
 26.890      52.000
 26.900      52.000
 26.910      52.000
 26.920      52.000
 26.930      52.000
 26.940      52.000
 26.950      52.000
 26.960      52.000
 26.970      52.000
 26.981      52.000
 26.991      52.000
 27.001      52.000
 27.011      52.000
 27.021      52.000
 27.031      52.000
 27.041      52.000
 27.051      52.000
 27.061      52.000
 27.071      52.000
 27.081      52.000
 27.091      52.000
 27.101      52.000
 27.111      52.000
 27.121      52.000
 27.131      52.000
 27.141      52.000
 27.151      52.000
 27.161      52.000
 27.171      52.000
 27.181      52.000
 27.191      52.000
 27.201      52.000
 27.211      52.000
 27.221      52.000
 27.231      52.000
 27.241      52.000
 27.251      52.000
 27.261      52.000
 27.271      52.000
 27.281      52.000
 27.291      52.000
 27.301      52.000
 27.311      52.000
 27.321      52.000
 27.331      52.000
 27.341      52.000
 27.351      52.000
 27.361      52.000
 27.371      52.000
 27.381      52.000
 27.391      52.000
 27.401      52.000
 27.411      52.000
 27.421      52.000
 27.431      52.000
 27.441      52.000
 27.451      52.000
 27.461      52.000
 27.471      52.000
 27.481      52.000
 27.491      52.000
 27.501      52.000
 27.511      52.000
 27.521      52.000
 27.531      52.000
 27.542      52.000
 27.552      52.000
 27.562      52.000
 27.572      52.000
 27.582      52.000
 27.592      52.000
 27.602      52.000
 27.612      52.000
 27.622      52.000
 27.632      52.000
 27.642      52.000
 27.652      52.000
 27.662      52.000
 27.672      52.000
 27.682      52.000
 27.692      52.000
 27.702      52.000
 27.712      52.000
 27.722      52.000
 27.732      52.000
 27.742      52.000
 27.752      52.000
 27.762      52.000
 27.772      52.000
 27.782      52.000
 27.792      52.000
 27.802      52.000
 27.812      52.000
 27.822      52.000
 27.832      52.000
 27.842      52.000
 27.852      52.000
 27.862      52.000
 27.872      52.000
 27.882      52.000
 27.892      52.000
 27.902      52.000
 27.912      52.000
 27.922      52.000
 27.932      52.000
 27.942      52.000
 27.952      52.000
 27.962      52.000
 27.972      52.000
 27.982      52.000
 27.992      52.000
 28.002      52.000
 28.012      52.000
 28.022      52.000
 28.032      52.000
 28.042      52.000
 28.052      52.000
 28.062      52.000
 28.072      52.000
 28.082      52.000
 28.093      52.000
 28.103      52.000
 28.113      52.000
 28.123      52.000
 28.133      52.000
 28.143      52.000
 28.153      52.000
 28.163      52.000
 28.173      52.000
 28.183      52.000
 28.193      52.000
 28.203      52.000
 28.213      52.000
 28.223      52.000
 28.233      52.000
 28.243      52.000
 28.253      52.000
 28.263      52.000
 28.273      52.000
 28.283      52.000
 28.293      52.000
 28.303      52.000
 28.313      52.000
 28.323      52.000
 28.333      52.000
 28.343      52.000
 28.353      52.000
 28.363      52.000
 28.373      52.000
 28.383      52.000
 28.393      52.000
 28.403      52.000
 28.413      52.000
 28.423      52.000
 28.433      52.000
 28.443      52.000
 28.453      52.000
 28.463      52.000
 28.473      52.000
 28.483      52.000
 28.493      52.000
 28.503      52.000
 28.513      52.000
 28.523      52.000
 28.533      52.000
 28.543      52.000
 28.553      52.000
 28.563      52.000
 28.573      52.000
 28.583      52.000
 28.593      52.000
 28.603      52.000
 28.613      52.000
 28.623      52.000
 28.633      52.000
 28.643      52.000
 28.654      52.000
 28.664      52.000
 28.674      52.000
 28.684      52.000
 28.694      52.000
 28.704      52.000
 28.714      52.000
 28.724      52.000
 28.734      52.000
 28.744      52.000
 28.754      52.000
 28.764      52.000
 28.774      52.000
 28.784      52.000
 28.794      52.000
 28.804      52.000
 28.814      52.000
 28.824      52.000
 28.834      52.000
 28.844      52.000
 28.854      52.000
 28.864      52.000
 28.874      52.000
 28.884      52.000
 28.894      52.000
 28.904      52.000
 28.914      52.000
 28.924      52.000
 28.934      52.000
 28.944      52.000
 28.954      52.000
 28.964      52.000
 28.974      52.000
 28.984      52.000
 28.994      52.000
 29.004      52.000
 29.014      52.000
 29.024      52.000
 29.034      52.000
 29.044      52.000
 29.054      52.000
 29.064      52.000
 29.074      52.000
 29.084      52.000
 29.094      52.000
 29.104      52.000
 29.114      52.000
 29.124      52.000
 29.134      52.000
 29.144      52.000
 29.154      52.000
 29.164      52.000
 29.174      52.000
 29.184      52.000
 29.194      52.000
 29.205      52.000
 29.215      52.000
 29.225      52.000
 29.235      52.000
 29.245      52.000
 29.255      52.000
 29.265      52.000
 29.275      52.000
 29.285      52.000
 29.295      52.000
 29.305      52.000
 29.315      52.000
 29.325      52.000
 29.335      52.000
 29.345      52.000
 29.355      52.000
 29.365      52.000
 29.375      52.000
 29.385      52.000
 29.395      52.000
 29.405      52.000
 29.415      52.000
 29.425      52.000
 29.435      52.000
 29.445      52.000
 29.455      52.000
 29.465      52.000
 29.475      52.000
 29.485      52.000
 29.495      52.000
 29.505      52.000
 29.515      52.000
 29.525      52.000
 29.535      52.000
 29.545      52.000
 29.555      52.000
 29.565      52.000
 29.575      52.000
 29.585      52.000
 29.595      52.000
 29.605      52.000
 29.615      52.000
 29.625      52.000
 29.635      52.000
 29.645      52.000
 29.655      52.000
 29.665      52.000
 29.675      52.000
 29.685      52.000
 29.695      52.000
 29.705      52.000
 29.715      52.000
 29.725      52.000
 29.735      52.000
 29.745      52.000
 29.755      52.000
 29.766      52.000
 29.776      52.000
 29.786      52.000
 29.796      52.000
 29.806      52.000
 29.816      52.000
 29.826      52.000
 29.836      52.000
 29.846      52.000
 29.856      52.000
 29.866      52.000
 29.876      52.000
 29.886      52.000
 29.896      52.000
 29.906      52.000
 29.916      52.000
 29.926      52.000
 29.936      52.000
 29.946      52.000
 29.956      52.000
 29.966      52.000
 29.976      52.000
 29.986      52.000
 29.996      52.000
 30.006      52.000
 30.016      52.000
 30.026      52.000
 30.036      52.000
 30.046      52.000
 30.056      52.000
 30.066      52.000
 30.076      52.000
 30.086      52.000
 30.096      52.000
 30.106      52.000
 30.116      52.000
 30.126      52.000
 30.136      52.000
 30.146      52.000
 30.156      52.000
 30.166      52.000
 30.176      52.000
 30.186      52.000
 30.196      52.000
 30.206      52.000
 30.216      52.000
 30.226      52.000
 30.236      52.000
 30.246      52.000
 30.256      52.000
 30.266      52.000
 30.276      52.000
 30.286      52.000
 30.296      52.000
 30.306      52.000
 30.317      52.000
 30.327      52.000
 30.337      52.000
 30.347      52.000
 30.357      52.000
 30.367      52.000
 30.377      52.000
 30.387      52.000
 30.397      52.000
 30.407      52.000
 30.417      52.000
 30.427      52.000
 30.437      52.000
 30.447      52.000
 30.457      52.000
 30.467      52.000
 30.477      52.000
 30.487      52.000
 30.497      52.000
 30.507      52.000
 30.517      52.000
 30.527      52.000
 30.537      52.000
 30.547      52.000
 30.557      52.000
 30.567      52.000
 30.577      52.000
 30.587      52.000
 30.597      52.000
 30.607      52.000
 30.617      52.000
 30.627      52.000
 30.637      52.000
 30.647      52.000
 30.657      52.000
 30.667      52.000
 30.677      52.000
 30.687      52.000
 30.697      52.000
 30.707      52.000
 30.717      52.000
 30.727      52.000
 30.737      52.000
 30.747      52.000
 30.757      52.000
 30.767      52.000
 30.777      52.000
 30.787      52.000
 30.797      52.000
 30.807      52.000
 30.817      52.000
 30.827      52.000
 30.837      52.000
 30.847      52.000
 30.857      52.000
 30.867      52.000
 30.878      52.000
 30.888      52.000
 30.898      52.000
 30.908      52.000
 30.918      52.000
 30.928      52.000
 30.938      52.000
 30.948      52.000
 30.958      52.000
 30.968      52.000
 30.978      52.000
 30.988      52.000
 30.998      52.000
 31.008      52.000
 31.018      52.000
 31.028      52.000
 31.038      52.000
 31.048      52.000
 31.058      52.000
 31.068      52.000
 31.078      52.000
 31.088      52.000
 31.098      52.000
 31.108      52.000
 31.118      52.000
 31.128      52.000
 31.138      52.000
 31.148      52.000
 31.158      52.000
 31.168      52.000
 31.178      52.000
 31.188      52.000
 31.198      52.000
 31.208      52.000
 31.218      52.000
 31.228      52.000
 31.238      52.000
 31.248      52.000
 31.258      52.000
 31.268      52.000
 31.278      52.000
 31.288      52.000
 31.298      52.000
 31.308      52.000
 31.318      52.000
 31.328      52.000
 31.338      52.000
 31.348      52.000
 31.358      52.000
 31.368      52.000
 31.378      52.000
 31.388      52.000
 31.398      52.000
 31.408      52.000
 31.418      52.000
 31.429      52.000
 31.439      52.000
 31.449      52.000
 31.459      52.000
 31.469      52.000
 31.479      52.000
 31.489      52.000
 31.499      52.000
 31.509      52.000
 31.519      52.000
 31.529      52.000
 31.539      52.000
 31.549      52.000
 31.559      52.000
 31.569      52.000
 31.579      52.000
 31.589      52.000
 31.599      52.000
 31.609      52.000
 31.619      52.000
 31.629      52.000
 31.639      52.000
 31.649      52.000
 31.659      52.000
 31.669      52.000
 31.679      52.000
 31.689      52.000
 31.699      52.000
 31.709      52.000
 31.719      52.000
 31.729      52.000
 31.739      52.000
 31.749      52.000
 31.759      52.000
 31.769      52.000
 31.779      52.000
 31.789      52.000
 31.799      52.000
 31.809      52.000
 31.819      52.000
 31.829      52.000
 31.839      52.000
 31.849      52.000
 31.859      52.000
 31.869      52.000
 31.879      52.000
 31.889      52.000
 31.899      52.000
 31.909      52.000
 31.919      52.000
 31.929      52.000
 31.939      52.000
 31.949      52.000
 31.959      52.000
 31.969      52.000
 31.979      52.000
 31.990      52.000
 32.000      52.000
 32.010      52.000
 32.020      52.000
 32.030      52.000
 32.040      52.000
 32.050      52.000
 32.060      52.000
 32.070      52.000
 32.080      52.000
 32.090      52.000
 32.100      52.000
 32.110      52.000
 32.120      52.000
 32.130      52.000
 32.140      52.000
 32.150      52.000
 32.160      52.000
 32.170      52.000
 32.180      52.000
 32.190      52.000
 32.200      52.000
 32.210      52.000
 32.220      52.000
 32.230      52.000
 32.240      52.000
 32.250      52.000
 32.260      52.000
 32.270      52.000
 32.280      52.000
 32.290      52.000
 32.300      52.000
 32.310      52.000
 32.320      52.000
 32.330      52.000
 32.340      52.000
 32.350      52.000
 32.360      52.000
 32.370      52.000
 32.380      52.000
 32.390      52.000
 32.400      52.000
 32.410      52.000
 32.420      52.000
 32.430      52.000
 32.440      52.000
 32.450      52.000
 32.460      52.000
 32.470      52.000
 32.480      52.000
 32.490      52.000
 32.500      52.000
 32.510      52.000
 32.520      52.000
 32.530      52.000
 32.541      52.000
 32.551      52.000
 32.561      52.000
 32.571      52.000
 32.581      52.000
 32.591      52.000
 32.601      52.000
 32.611      52.000
 32.621      52.000
 32.631      52.000
 32.641      52.000
 32.651      52.000
 32.661      52.000
 32.671      52.000
 32.681      52.000
 32.691      52.000
 32.701      52.000
 32.711      52.000
 32.721      52.000
 32.731      52.000
 32.741      52.000
 32.751      52.000
 32.761      52.000
 32.771      52.000
 32.781      52.000
 32.791      52.000
 32.801      52.000
 32.811      52.000
 32.821      52.000
 32.831      52.000
 32.841      52.000
 32.851      52.000
 32.861      52.000
 32.871      52.000
 32.881      52.000
 32.891      52.000
 32.901      52.000
 32.911      52.000
 32.921      52.000
 32.931      52.000
 32.941      52.000
 32.951      52.000
 32.961      52.000
 32.971      52.000
 32.981      52.000
 32.991      52.000
 33.001      52.000
 33.011      52.000
 33.021      52.000
 33.031      52.000
 33.041      52.000
 33.051      52.000
 33.061      52.000
 33.071      52.000
 33.081      52.000
 33.091      52.000
 33.102      52.000
 33.112      52.000
 33.122      52.000
 33.132      52.000
 33.142      52.000
 33.152      52.000
 33.162      52.000
 33.172      52.000
 33.182      52.000
 33.192      52.000
 33.202      52.000
 33.212      52.000
 33.222      52.000
 33.232      52.000
 33.242      52.000
 33.252      52.000
 33.262      52.000
 33.272      52.000
 33.282      52.000
 33.292      52.000
 33.302      52.000
 33.312      52.000
 33.322      52.000
 33.332      52.000
 33.342      52.000
 33.352      52.000
 33.362      52.000
 33.372      52.000
 33.382      52.000
 33.392      52.000
 33.402      52.000
 33.412      52.000
 33.422      52.000
 33.432      52.000
 33.442      52.000
 33.452      52.000
 33.462      52.000
 33.472      53.371
 33.482      53.404
 33.492      53.438
 33.502      53.473
 33.512      53.510
 33.522      53.548
 33.532      53.588
 33.542      53.629
 33.552      53.672
 33.562      53.716
 33.572      53.763
 33.582      53.811
 33.592      53.861
 33.602      53.913
 33.612      53.968
 33.622      54.025
 33.632      54.084
 33.642      54.146
 33.652      54.211
 33.663      54.279
 33.673      54.350
 33.683      54.424
 33.693      54.502
 33.703      54.584
 33.713      54.669
 33.723      54.759
 33.733      54.854
 33.743      54.954
 33.753      55.059
 33.763      55.169
 33.773      55.286
 33.783      55.409
 33.793      55.539
 33.803      55.677
 33.813      55.823
 33.823      55.978
 33.833      56.142
 33.843      56.317
 33.853      56.503
 33.863      56.701
 33.873      56.912
 33.883      57.138
 33.893      57.380
 33.903      57.639
 33.913      57.917
 33.923      58.216
 33.933      58.538
 33.943      58.886
 33.953      59.261
 33.963      59.668
 33.973      60.110
 33.983      60.591
 33.993      61.115
 34.003      61.688
 34.013      62.317
 34.023      63.007
 34.033      63.768
 34.043      64.612
 34.053      65.549
 34.063      66.600
 34.073      67.791
 34.083      69.165
 34.093      70.801
 34.103      72.840
 34.113      75.538
 34.123      79.365
 34.133      85.139
 34.143      94.248
 34.153     108.926
 34.163     132.608
 34.173     170.233
 34.183     228.533
 34.193     315.999
 34.203     442.439
 34.214     617.947
 34.224     851.204
 34.234    1147.343
 34.244    1504.982
 34.254    1914.704
 34.264    2357.375
 34.274    2804.464
 34.284    3220.048
 34.294    3564.733
 34.304    3800.694
 34.314    3899.447
 34.324    3848.194
 34.334    3653.642
 34.344    3340.028
 34.354    2942.690
 34.364    2501.507
 34.374    2053.908
 34.384    1631.095
 34.394    1255.314
 34.404     939.083
 34.414     686.027
 34.424     492.780
 34.434     351.714
 34.444     252.889
 34.454     186.260
 34.464     142.841
 34.474     115.324
 34.484      98.201
 34.494      87.603
 34.504      80.947
 34.514      76.609
 34.524      73.614
 34.534      71.401
 34.544      69.655
 34.554      68.207
 34.564      66.964
 34.574      65.872
 34.584      64.901
 34.594      64.029
 34.604      63.242
 34.614      62.530
 34.624      61.883
 34.634      61.293
 34.644      60.754
 34.654      60.260
 34.664      59.806
 34.674      59.388
 34.684      59.003
 34.694      58.647
 34.704      58.317
 34.714      58.010
 34.724      57.726
 34.734      57.461
 34.744      57.214
 34.754      56.983
 34.764      56.767
 34.775      56.565
 34.785      56.375
 34.795      56.197
 34.805      56.029
 34.815      55.872
 34.825      55.723
 34.835      55.583
 34.845      55.450
 34.855      55.325
 34.865      55.206
 34.875      55.093
 34.885      54.987
 34.895      54.885
 34.905      54.789
 34.915      54.698
 34.925      54.611
 34.935      54.528
 34.945      54.449
 34.955      54.373
 34.965      54.301
 34.975      54.232
 34.985      54.167
 34.995      54.104
 35.005      54.043
 35.015      53.986
 35.025      53.930
 35.035      53.877
 35.045      53.827
 35.055      53.778
 35.065      53.731
 35.075      53.686
 35.085      53.643
 35.095      53.601
 35.105      53.561
 35.115      53.522
 35.125      53.485
 35.135      53.449
 35.145      53.414
 35.155      53.381
 35.165      52.000
 35.175      52.000
 35.185      52.000
 35.195      52.000
 35.205      52.000
 35.215      52.000
 35.225      52.000
 35.235      52.000
 35.245      52.000
 35.255      52.000
 35.265      52.000
 35.275      52.000
 35.285      52.000
 35.295      52.000
 35.305      52.000
 35.315      52.000
 35.326      52.000
 35.336      52.000
 35.346      52.000
 35.356      52.000
 35.366      52.000
 35.376      52.000
 35.386      52.000
 35.396      52.000
 35.406      52.000
 35.416      52.000
 35.426      52.000
 35.436      52.000
 35.446      52.000
 35.456      52.000
 35.466      52.000
 35.476      52.000
 35.486      52.000
 35.496      52.000
 35.506      52.000
 35.516      52.000
 35.526      52.000
 35.536      52.000
 35.546      52.000
 35.556      52.000
 35.566      52.000
 35.576      52.000
 35.586      52.000
 35.596      52.000
 35.606      52.000
 35.616      52.000
 35.626      52.000
 35.636      52.000
 35.646      52.000
 35.656      52.000
 35.666      52.000
 35.676      52.000
 35.686      52.000
 35.696      52.000
 35.706      52.000
 35.716      52.000
 35.726      52.000
 35.736      52.000
 35.746      52.000
 35.756      52.000
 35.766      52.000
 35.776      52.000
 35.786      52.000
 35.796      52.000
 35.806      52.000
 35.816      52.000
 35.826      52.000
 35.836      52.000
 35.846      52.000
 35.856      52.000
 35.866      52.000
 35.876      52.000
 35.887      52.000
 35.897      52.000
 35.907      52.000
 35.917      52.000
 35.927      52.000
 35.937      52.000
 35.947      52.000
 35.957      52.000
 35.967      52.000
 35.977      52.000
 35.987      52.000
 35.997      52.000
 36.007      52.000
 36.017      52.000
 36.027      52.000
 36.037      52.000
 36.047      52.000
 36.057      52.000
 36.067      52.000
 36.077      52.000
 36.087      52.000
 36.097      52.000
 36.107      52.000
 36.117      52.000
 36.127      52.000
 36.137      52.000
 36.147      52.000
 36.157      52.000
 36.167      52.000
 36.177      52.000
 36.187      52.000
 36.197      52.000
 36.207      52.000
 36.217      52.000
 36.227      52.000
 36.237      52.000
 36.247      52.000
 36.257      52.000
 36.267      52.000
 36.277      52.000
 36.287      52.000
 36.297      52.000
 36.307      52.000
 36.317      52.000
 36.327      52.000
 36.337      52.000
 36.347      52.000
 36.357      52.000
 36.367      52.000
 36.377      52.000
 36.387      52.000
 36.397      52.000
 36.407      52.000
 36.417      52.000
 36.427      52.000
 36.438      52.000
 36.448      52.000
 36.458      52.000
 36.468      52.000
 36.478      52.000
 36.488      52.000
 36.498      52.000
 36.508      52.000
 36.518      52.000
 36.528      52.000
 36.538      52.000
 36.548      52.000
 36.558      52.000
 36.568      52.000
 36.578      52.250
 36.588      52.255
 36.598      52.261
 36.608      52.267
 36.618      52.274
 36.628      52.280
 36.638      52.287
 36.648      52.294
 36.658      52.301
 36.668      52.309
 36.678      52.316
 36.688      52.324
 36.698      52.333
 36.708      52.342
 36.718      52.351
 36.728      52.360
 36.738      52.370
 36.748      52.380
 36.758      52.391
 36.768      52.402
 36.778      52.414
 36.788      52.426
 36.798      52.438
 36.808      52.451
 36.818      52.465
 36.828      52.480
 36.838      52.495
 36.848      52.511
 36.858      52.527
 36.868      52.545
 36.878      52.563
 36.888      52.582
 36.898      52.603
 36.908      52.624
 36.918      52.647
 36.928      52.670
 36.938      52.695
 36.948      52.722
 36.958      52.750
 36.968      52.780
 36.978      52.811
 36.988      52.844
 36.999      52.880
 37.009      52.918
 37.019      52.958
 37.029      53.001
 37.039      53.046
 37.049      53.095
 37.059      53.148
 37.069      53.204
 37.079      53.265
 37.089      53.330
 37.099      53.400
 37.109      53.476
 37.119      53.558
 37.129      53.648
 37.139      53.745
 37.149      53.851
 37.159      53.966
 37.169      54.093
 37.179      54.232
 37.189      54.385
 37.199      54.556
 37.209      54.746
 37.219      54.962
 37.229      55.212
 37.239      55.512
 37.249      55.886
 37.259      56.383
 37.269      57.081
 37.279      58.118
 37.289      59.713
 37.299      62.210
 37.309      66.120
 37.319      72.171
 37.329      81.338
 37.339      94.838
 37.349     114.103
 37.359     140.650
 37.369     175.889
 37.379     220.846
 37.389     275.866
 37.399     340.203
 37.409     411.904
 37.419     487.629
 37.429     562.780
 37.439     631.822
 37.449     688.855
 37.459     728.293
 37.469     745.923
 37.479     739.728
 37.489     710.426
 37.499     661.280
 37.509     597.324
 37.519     524.371
 37.529     448.281
 37.539     374.134
 37.549     305.905
 37.560     246.227
 37.570     196.395
 37.580     156.531
 37.590     125.940
 37.600     103.342
 37.610      87.241
 37.620      76.147
 37.630      68.728
 37.640      63.885
 37.650      60.781
 37.660      58.802
 37.670      57.529
 37.680      56.689
 37.690      56.107
 37.700      55.681
 37.710      55.350
 37.720      55.078
 37.730      54.847
 37.740      54.645
 37.750      54.465
 37.760      54.304
 37.770      54.158
 37.780      54.026
 37.790      53.905
 37.800      53.795
 37.810      53.694
 37.820      53.601
 37.830      53.515
 37.840      53.436
 37.850      53.363
 37.860      53.296
 37.870      53.233
 37.880      53.175
 37.890      53.120
 37.900      53.070
 37.910      53.022
 37.920      52.978
 37.930      52.937
 37.940      52.898
 37.950      52.861
 37.960      52.827
 37.970      52.794
 37.980      52.764
 37.990      52.735
 38.000      52.708
 38.010      52.682
 38.020      52.658
 38.030      52.635
 38.040      52.613
 38.050      52.592
 38.060      52.572
 38.070      52.554
 38.080      52.536
 38.090      52.519
 38.100      52.502
 38.111      52.487
 38.121      52.472
 38.131      52.458
 38.141      52.445
 38.151      52.432
 38.161      52.419
 38.171      52.407
 38.181      52.396
 38.191      52.385
 38.201      52.375
 38.211      52.365
 38.221      52.355
 38.231      52.346
 38.241      52.337
 38.251      52.328
 38.261      52.320
 38.271      52.312
 38.281      52.305
 38.291      52.297
 38.301      52.290
 38.311      52.283
 38.321      52.277
 38.331      52.270
 38.341      52.264
 38.351      52.258
 38.361      52.253
 38.371      52.247
 38.381      52.000
 38.391      52.000
 38.401      52.000
 38.411      52.000
 38.421      52.000
 38.431      52.000
 38.441      52.000
 38.451      52.000
 38.461      52.000
 38.471      52.000
 38.481      52.000
 38.491      52.000
 38.501      52.000
 38.511      52.000
 38.521      52.000
 38.531      52.000
 38.541      52.000
 38.551      52.000
 38.561      52.000
 38.571      52.000
 38.581      52.000
 38.591      52.000
 38.601      52.000
 38.611      52.000
 38.621      52.000
 38.631      52.000
 38.641      52.000
 38.651      52.000
 38.661      52.000
 38.672      52.000
 38.682      52.000
 38.692      52.000
 38.702      52.000
 38.712      52.000
 38.722      52.000
 38.732      52.000
 38.742      52.000
 38.752      52.000
 38.762      52.000
 38.772      52.000
 38.782      52.000
 38.792      52.000
 38.802      52.000
 38.812      52.000
 38.822      52.000
 38.832      52.000
 38.842      52.000
 38.852      52.000
 38.862      52.000
 38.872      52.000
 38.882      52.000
 38.892      52.000
 38.902      52.000
 38.912      52.000
 38.922      52.000
 38.932      52.000
 38.942      52.000
 38.952      52.000
 38.962      52.000
 38.972      52.000
 38.982      52.000
 38.992      52.000
 39.002      52.000
 39.012      52.000
 39.022      52.000
 39.032      52.000
 39.042      52.000
 39.052      52.000
 39.062      52.000
 39.072      52.000
 39.082      52.000
 39.092      52.000
 39.102      52.000
 39.112      52.000
 39.122      52.000
 39.132      52.000
 39.142      52.000
 39.152      52.000
 39.162      52.000
 39.172      52.000
 39.182      52.000
 39.192      52.000
 39.202      52.000
 39.212      52.000
 39.223      52.000
 39.233      52.000
 39.243      52.000
 39.253      52.000
 39.263      52.000
 39.273      52.000
 39.283      52.000
 39.293      52.000
 39.303      52.000
 39.313      52.000
 39.323      52.000
 39.333      52.000
 39.343      52.000
 39.353      52.000
 39.363      52.000
 39.373      52.000
 39.383      52.000
 39.393      52.000
 39.403      52.000
 39.413      52.000
 39.423      52.000
 39.433      52.000
 39.443      52.000
 39.453      52.000
 39.463      52.000
 39.473      52.000
 39.483      52.000
 39.493      52.000
 39.503      52.000
 39.513      52.000
 39.523      52.000
 39.533      52.000
 39.543      52.000
 39.553      52.000
 39.563      52.000
 39.573      52.000
 39.583      52.000
 39.593      52.000
 39.603      52.000
 39.613      52.000
 39.623      52.000
 39.633      52.000
 39.643      52.000
 39.653      52.000
 39.663      52.000
 39.673      52.000
 39.683      52.000
 39.693      52.000
 39.703      52.000
 39.713      52.000
 39.723      52.000
 39.733      52.000
 39.743      52.000
 39.753      52.000
 39.763      52.000
 39.773      52.000
 39.784      52.000
 39.794      52.000
 39.804      52.000
 39.814      52.000
 39.824      52.000
 39.834      52.000
 39.844      52.000
 39.854      52.000
 39.864      52.000
 39.874      52.000
 39.884      52.000
 39.894      52.000
 39.904      52.000
 39.914      52.000
 39.924      52.000
 39.934      52.000
 39.944      52.000
 39.954      52.000
 39.964      52.000
 39.974      52.000
 39.984      52.000
 39.994      52.000
 40.004      52.000
 40.014      52.000
 40.024      52.000
 40.034      52.000
 40.044      52.000
 40.054      52.000
 40.064      52.000
 40.074      52.000
 40.084      52.000
 40.094      52.000
 40.104      52.000
 40.114      52.000
 40.124      52.000
 40.134      52.000
 40.144      52.000
 40.154      52.000
 40.164      52.000
 40.174      52.000
 40.184      52.000
 40.194      52.000
 40.204      52.000
 40.214      52.000
 40.224      52.000
 40.234      52.000
 40.244      52.000
 40.254      52.000
 40.264      52.000
 40.274      52.000
 40.284      52.000
 40.294      52.000
 40.304      52.000
 40.314      52.000
 40.324      52.000
 40.335      52.000
 40.345      52.000
 40.355      52.000
 40.365      52.000
 40.375      52.000
 40.385      52.000
 40.395      52.000
 40.405      52.000
 40.415      52.000
 40.425      52.000
 40.435      52.000
 40.445      52.000
 40.455      52.000
 40.465      52.000
 40.475      52.000
 40.485      52.000
 40.495      52.000
 40.505      52.000
 40.515      52.000
 40.525      52.000
 40.535      52.000
 40.545      52.000
 40.555      52.000
 40.565      52.000
 40.575      52.000
 40.585      52.000
 40.595      52.000
 40.605      52.000
 40.615      52.000
 40.625      52.000
 40.635      52.000
 40.645      52.000
 40.655      52.000
 40.665      52.000
 40.675      52.000
 40.685      52.000
 40.695      52.000
 40.705      52.000
 40.715      52.000
 40.725      52.000
 40.735      52.000
 40.745      52.000
 40.755      52.000
 40.765      52.000
 40.775      52.000
 40.785      52.000
 40.795      52.000
 40.805      52.000
 40.815      52.000
 40.825      52.000
 40.835      52.000
 40.845      52.000
 40.855      52.000
 40.865      52.000
 40.875      52.000
 40.885      52.000
 40.896      52.000
 40.906      52.000
 40.916      52.000
 40.926      52.000
 40.936      52.000
 40.946      52.000
 40.956      52.000
 40.966      52.000
 40.976      52.000
 40.986      52.000
 40.996      52.000
 41.006      52.000
 41.016      52.000
 41.026      52.000
 41.036      52.000
 41.046      52.000
 41.056      52.000
 41.066      52.000
 41.076      52.000
 41.086      52.000
 41.096      52.000
 41.106      52.000
 41.116      52.000
 41.126      52.000
 41.136      52.000
 41.146      52.000
 41.156      52.000
 41.166      52.000
 41.176      52.000
 41.186      52.000
 41.196      52.000
 41.206      52.000
 41.216      52.000
 41.226      52.000
 41.236      52.000
 41.246      52.000
 41.256      52.000
 41.266      52.000
 41.276      52.000
 41.286      52.000
 41.296      52.000
 41.306      52.000
 41.316      52.000
 41.326      52.000
 41.336      52.000
 41.346      52.000
 41.356      52.000
 41.366      52.000
 41.376      52.000
 41.386      52.000
 41.396      52.000
 41.406      52.000
 41.416      52.000
 41.426      52.000
 41.436      52.000
 41.447      52.000
 41.457      52.000
 41.467      52.000
 41.477      52.000
 41.487      52.000
 41.497      52.000
 41.507      52.000
 41.517      52.000
 41.527      52.000
 41.537      52.000
 41.547      52.000
 41.557      52.000
 41.567      52.000
 41.577      52.000
 41.587      52.000
 41.597      52.000
 41.607      52.000
 41.617      52.000
 41.627      52.000
 41.637      52.000
 41.647      52.000
 41.657      52.000
 41.667      52.000
 41.677      52.000
 41.687      52.000
 41.697      52.000
 41.707      52.000
 41.717      52.000
 41.727      52.000
 41.737      52.000
 41.747      52.000
 41.757      52.000
 41.767      52.000
 41.777      52.000
 41.787      52.000
 41.797      52.000
 41.807      52.000
 41.817      52.000
 41.827      52.000
 41.837      52.000
 41.847      52.000
 41.857      52.000
 41.867      52.000
 41.877      52.000
 41.887      52.000
 41.897      52.000
 41.907      52.000
 41.917      52.000
 41.927      52.000
 41.937      52.000
 41.947      52.000
 41.957      52.000
 41.967      52.000
 41.977      52.000
 41.987      52.000
 41.997      52.000
 42.008      52.000
 42.018      52.000
 42.028      52.000
 42.038      52.000
 42.048      52.000
 42.058      52.000
 42.068      52.000
 42.078      52.000
 42.088      52.000
 42.098      52.000
 42.108      52.000
 42.118      52.000
 42.128      52.000
 42.138      52.000
 42.148      52.000
 42.158      52.000
 42.168      52.000
 42.178      52.000
 42.188      52.000
 42.198      52.000
 42.208      52.000
 42.218      52.000
 42.228      52.000
 42.238      52.000
 42.248      52.000
 42.258      52.000
 42.268      52.000
 42.278      52.000
 42.288      52.000
 42.298      52.000
 42.308      52.000
 42.318      52.000
 42.328      52.000
 42.338      52.000
 42.348      52.000
 42.358      52.000
 42.368      52.000
 42.378      52.000
 42.388      52.000
 42.398      52.000
 42.408      52.000
 42.418      52.000
 42.428      52.000
 42.438      52.000
 42.448      52.000
 42.458      52.000
 42.468      52.000
 42.478      52.000
 42.488      52.000
 42.498      52.000
 42.508      52.000
 42.518      52.000
 42.528      52.000
 42.538      52.000
 42.548      52.000
 42.558      52.000
 42.569      52.000
 42.579      52.000
 42.589      52.000
 42.599      52.000
 42.609      52.000
 42.619      52.000
 42.629      52.000
 42.639      52.000
 42.649      52.000
 42.659      52.000
 42.669      52.000
 42.679      52.000
 42.689      52.000
 42.699      52.000
 42.709      52.000
 42.719      52.000
 42.729      52.000
 42.739      52.000
 42.749      52.000
 42.759      52.000
 42.769      52.000
 42.779      52.000
 42.789      52.000
 42.799      52.000
 42.809      52.000
 42.819      52.000
 42.829      52.000
 42.839      52.000
 42.849      52.000
 42.859      52.000
 42.869      52.000
 42.879      52.000
 42.889      52.000
 42.899      52.000
 42.909      52.000
 42.919      52.000
 42.929      52.000
 42.939      52.000
 42.949      52.000
 42.959      52.000
 42.969      52.000
 42.979      52.000
 42.989      52.000
 42.999      52.000
 43.009      52.000
 43.019      52.000
 43.029      52.000
 43.039      52.000
 43.049      52.000
 43.059      52.000
 43.069      52.000
 43.079      52.000
 43.089      52.000
 43.099      52.000
 43.109      52.000
 43.120      52.000
 43.130      52.000
 43.140      52.000
 43.150      52.000
 43.160      52.000
 43.170      52.000
 43.180      52.000
 43.190      52.000
 43.200      52.000
 43.210      52.000
 43.220      52.000
 43.230      52.000
 43.240      52.000
 43.250      52.000
 43.260      52.000
 43.270      52.000
 43.280      52.000
 43.290      52.000
 43.300      52.000
 43.310      52.000
 43.320      52.000
 43.330      52.000
 43.340      52.000
 43.350      52.000
 43.360      52.000
 43.370      52.000
 43.380      52.000
 43.390      52.000
 43.400      52.000
 43.410      52.000
 43.420      52.000
 43.430      52.000
 43.440      52.000
 43.450      52.000
 43.460      52.000
 43.470      52.000
 43.480      52.000
 43.490      52.000
 43.500      52.000
 43.510      52.000
 43.520      52.000
 43.530      52.000
 43.540      52.000
 43.550      52.000
 43.560      52.000
 43.570      52.000
 43.580      52.000
 43.590      52.000
 43.600      52.000
 43.610      52.000
 43.620      52.000
 43.630      52.000
 43.640      52.000
 43.650      52.000
 43.660      52.000
 43.670      52.000
 43.681      52.000
 43.691      52.000
 43.701      52.000
 43.711      52.000
 43.721      52.000
 43.731      52.000
 43.741      52.000
 43.751      52.000
 43.761      52.000
 43.771      52.000
 43.781      52.000
 43.791      52.000
 43.801      52.000
 43.811      52.000
 43.821      52.000
 43.831      52.000
 43.841      52.000
 43.851      52.000
 43.861      52.000
 43.871      52.000
 43.881      52.000
 43.891      52.000
 43.901      52.000
 43.911      52.000
 43.921      52.000
 43.931      52.000
 43.941      52.000
 43.951      52.000
 43.961      52.000
 43.971      52.000
 43.981      52.000
 43.991      52.000
 44.001      52.000
 44.011      52.000
 44.021      52.000
 44.031      52.000
 44.041      52.000
 44.051      52.000
 44.061      52.000
 44.071      52.000
 44.081      52.000
 44.091      52.000
 44.101      52.000
 44.111      52.000
 44.121      52.000
 44.131      52.000
 44.141      52.000
 44.151      52.000
 44.161      52.000
 44.171      52.000
 44.181      52.000
 44.191      52.000
 44.201      52.000
 44.211      52.000
 44.221      52.000
 44.232      52.000
 44.242      52.000
 44.252      52.000
 44.262      52.000
 44.272      52.000
 44.282      52.000
 44.292      52.000
 44.302      52.000
 44.312      52.000
 44.322      52.000
 44.332      52.000
 44.342      52.000
 44.352      52.000
 44.362      52.000
 44.372      52.000
 44.382      52.000
 44.392      52.000
 44.402      52.000
 44.412      52.000
 44.422      52.000
 44.432      52.000
 44.442      52.000
 44.452      52.000
 44.462      52.000
 44.472      52.000
 44.482      52.000
 44.492      52.000
 44.502      52.000
 44.512      52.000
 44.522      52.000
 44.532      52.000
 44.542      52.000
 44.552      52.000
 44.562      52.000
 44.572      52.000
 44.582      52.000
 44.592      52.000
 44.602      52.000
 44.612      52.000
 44.622      52.000
 44.632      52.000
 44.642      52.000
 44.652      52.000
 44.662      52.000
 44.672      52.000
 44.682      52.000
 44.692      52.000
 44.702      52.000
 44.712      52.000
 44.722      52.000
 44.732      52.000
 44.742      52.000
 44.752      52.000
 44.762      52.000
 44.772      52.000
 44.782      52.000
 44.793      52.000
 44.803      52.000
 44.813      52.000
 44.823      52.000
 44.833      52.000
 44.843      52.000
 44.853      52.000
 44.863      52.000
 44.873      52.000
 44.883      52.000
 44.893      52.000
 44.903      52.000
 44.913      52.000
 44.923      52.000
 44.933      52.000
 44.943      52.000
 44.953      52.000
 44.963      52.000
 44.973      52.000
 44.983      52.000
 44.993      52.000
 45.003      52.000
 45.013      52.000
 45.023      52.000
 45.033      52.000
 45.043      52.000
 45.053      52.000
 45.063      52.000
 45.073      52.000
 45.083      52.000
 45.093      52.000
 45.103      52.000
 45.113      52.000
 45.123      52.000
 45.133      52.000
 45.143      52.000
 45.153      52.000
 45.163      52.000
 45.173      52.000
 45.183      52.000
 45.193      52.000
 45.203      52.000
 45.213      52.000
 45.223      52.000
 45.233      52.000
 45.243      52.000
 45.253      52.000
 45.263      52.000
 45.273      52.000
 45.283      52.000
 45.293      52.000
 45.303      52.000
 45.313      52.000
 45.323      52.000
 45.333      52.000
 45.344      52.000
 45.354      52.000
 45.364      52.000
 45.374      52.000
 45.384      52.000
 45.394      52.000
 45.404      52.000
 45.414      52.000
 45.424      52.000
 45.434      52.000
 45.444      52.000
 45.454      52.000
 45.464      52.000
 45.474      52.000
 45.484      52.000
 45.494      52.000
 45.504      52.000
 45.514      52.000
 45.524      52.000
 45.534      52.000
 45.544      52.000
 45.554      52.000
 45.564      52.000
 45.574      52.000
 45.584      52.000
 45.594      52.000
 45.604      52.000
 45.614      52.000
 45.624      52.000
 45.634      52.000
 45.644      52.000
 45.654      52.000
 45.664      52.000
 45.674      52.000
 45.684      52.000
 45.694      52.000
 45.704      52.000
 45.714      52.000
 45.724      52.000
 45.734      52.000
 45.744      52.000
 45.754      52.000
 45.764      52.000
 45.774      52.000
 45.784      52.000
 45.794      52.000
 45.804      52.000
 45.814      52.000
 45.824      52.000
 45.834      52.000
 45.844      52.000
 45.854      52.000
 45.864      52.000
 45.874      52.000
 45.884      52.000
 45.894      52.000
 45.905      52.000
 45.915      52.000
 45.925      52.000
 45.935      52.000
 45.945      52.000
 45.955      52.000
 45.965      52.000
 45.975      52.000
 45.985      52.000
 45.995      52.000
 46.005      52.000
 46.015      52.000
 46.025      52.000
 46.035      52.000
 46.045      52.000
 46.055      52.000
 46.065      52.000
 46.075      52.000
 46.085      52.000
 46.095      52.000
 46.105      52.000
 46.115      52.000
 46.125      52.000
 46.135      52.000
 46.145      52.000
 46.155      52.000
 46.165      52.000
 46.175      52.000
 46.185      52.000
 46.195      52.000
 46.205      52.000
 46.215      52.000
 46.225      52.000
 46.235      52.000
 46.245      52.000
 46.255      52.000
 46.265      52.000
 46.275      52.000
 46.285      52.000
 46.295      52.000
 46.305      52.000
 46.315      52.000
 46.325      52.000
 46.335      52.000
 46.345      52.000
 46.355      52.000
 46.365      52.000
 46.375      52.000
 46.385      52.000
 46.395      52.000
 46.405      52.000
 46.415      52.000
 46.425      52.000
 46.435      52.000
 46.445      52.000
 46.456      52.000
 46.466      52.000
 46.476      52.000
 46.486      52.000
 46.496      52.000
 46.506      52.000
 46.516      52.000
 46.526      52.000
 46.536      52.000
 46.546      52.000
 46.556      52.000
 46.566      52.000
 46.576      52.000
 46.586      52.000
 46.596      52.000
 46.606      52.000
 46.616      52.000
 46.626      52.000
 46.636      52.000
 46.646      52.000
 46.656      52.000
 46.666      52.000
 46.676      52.000
 46.686      52.000
 46.696      52.000
 46.706      52.000
 46.716      52.000
 46.726      52.000
 46.736      52.000
 46.746      52.000
 46.756      52.000
 46.766      52.000
 46.776      52.000
 46.786      52.000
 46.796      52.000
 46.806      52.000
 46.816      52.000
 46.826      52.000
 46.836      52.000
 46.846      52.000
 46.856      52.000
 46.866      52.000
 46.876      52.000
 46.886      52.000
 46.896      52.000
 46.906      52.000
 46.916      52.000
 46.926      52.000
 46.936      52.000
 46.946      52.000
 46.956      52.000
 46.966      52.000
 46.976      52.000
 46.986      52.000
 46.996      52.000
 47.006      52.000
 47.017      52.000
 47.027      52.000
 47.037      52.000
 47.047      52.000
 47.057      52.000
 47.067      52.000
 47.077      52.000
 47.087      52.000
 47.097      52.000
 47.107      52.000
 47.117      52.000
 47.127      52.000
 47.137      52.000
 47.147      52.000
 47.157      52.000
 47.167      52.000
 47.177      52.000
 47.187      52.000
 47.197      52.000
 47.207      52.000
 47.217      52.000
 47.227      52.000
 47.237      52.000
 47.247      52.000
 47.257      52.000
 47.267      52.000
 47.277      52.000
 47.287      52.000
 47.297      52.000
 47.307      52.000
 47.317      52.000
 47.327      52.000
 47.337      52.000
 47.347      52.000
 47.357      52.000
 47.367      52.000
 47.377      52.000
 47.387      52.000
 47.397      52.000
 47.407      52.000
 47.417      52.000
 47.427      52.000
 47.437      52.000
 47.447      52.000
 47.457      52.000
 47.467      52.000
 47.477      52.000
 47.487      52.000
 47.497      52.000
 47.507      52.000
 47.517      52.000
 47.527      52.000
 47.537      52.000
 47.547      52.000
 47.557      52.000
 47.568      52.000
 47.578      52.000
 47.588      52.000
 47.598      52.000
 47.608      52.000
 47.618      52.000
 47.628      52.000
 47.638      52.000
 47.648      52.000
 47.658      52.000
 47.668      52.000
 47.678      52.000
 47.688      52.000
 47.698      52.000
 47.708      52.000
 47.718      52.000
 47.728      52.000
 47.738      52.000
 47.748      52.000
 47.758      52.000
 47.768      52.000
 47.778      52.000
 47.788      52.000
 47.798      52.000
 47.808      52.000
 47.818      52.000
 47.828      52.000
 47.838      52.000
 47.848      52.000
 47.858      52.000
 47.868      52.000
 47.878      52.000
 47.888      52.000
 47.898      52.000
 47.908      52.000
 47.918      52.000
 47.928      52.000
 47.938      52.000
 47.948      52.000
 47.958      52.000
 47.968      52.000
 47.978      52.000
 47.988      52.000
 47.998      52.000
 48.008      52.000
 48.018      52.000
 48.028      52.000
 48.038      52.000
 48.048      52.000
 48.058      52.000
 48.068      52.000
 48.078      52.000
 48.088      52.000
 48.098      52.000
 48.108      52.000
 48.118      52.000
 48.129      52.000
 48.139      52.000
 48.149      52.000
 48.159      52.000
 48.169      52.000
 48.179      52.000
 48.189      52.000
 48.199      52.000
 48.209      52.000
 48.219      52.000
 48.229      52.000
 48.239      52.000
 48.249      52.000
 48.259      52.000
 48.269      52.000
 48.279      52.000
 48.289      52.000
 48.299      52.000
 48.309      52.000
 48.319      52.000
 48.329      52.000
 48.339      52.000
 48.349      52.000
 48.359      52.000
 48.369      52.000
 48.379      52.000
 48.389      52.000
 48.399      52.000
 48.409      52.000
 48.419      52.000
 48.429      52.000
 48.439      52.000
 48.449      52.000
 48.459      52.000
 48.469      52.000
 48.479      52.000
 48.489      52.000
 48.499      52.000
 48.509      52.000
 48.519      52.000
 48.529      52.000
 48.539      52.000
 48.549      52.000
 48.559      52.000
 48.569      52.000
 48.579      52.000
 48.589      52.000
 48.599      52.000
 48.609      52.000
 48.619      52.000
 48.629      52.000
 48.639      52.000
 48.649      52.000
 48.659      52.000
 48.669      52.000
 48.679      52.000
 48.690      52.000
 48.700      52.000
 48.710      52.000
 48.720      52.000
 48.730      52.000
 48.740      52.000
 48.750      52.000
 48.760      52.000
 48.770      52.000
 48.780      52.000
 48.790      52.000
 48.800      52.000
 48.810      52.000
 48.820      52.000
 48.830      52.000
 48.840      52.000
 48.850      52.000
 48.860      52.000
 48.870      52.000
 48.880      52.000
 48.890      52.000
 48.900      52.000
 48.910      52.000
 48.920      52.000
 48.930      52.000
 48.940      52.000
 48.950      52.000
 48.960      52.000
 48.970      52.000
 48.980      52.000
 48.990      52.000
 49.000      52.000
 49.010      52.000
 49.020      52.000
 49.030      52.000
 49.040      52.000
 49.050      52.000
 49.060      52.000
 49.070      52.000
 49.080      52.000
 49.090      52.000
 49.100      52.000
 49.110      52.000
 49.120      52.000
 49.130      52.000
 49.140      52.000
 49.150      52.000
 49.160      52.000
 49.170      52.000
 49.180      52.000
 49.190      52.000
 49.200      52.000
 49.210      52.000
 49.220      52.000
 49.230      52.000
 49.241      52.000
 49.251      52.000
 49.261      52.000
 49.271      52.000
 49.281      52.000
 49.291      52.000
 49.301      52.000
 49.311      52.000
 49.321      52.000
 49.331      52.000
 49.341      52.000
 49.351      52.000
 49.361      52.000
 49.371      52.000
 49.381      52.000
 49.391      52.000
 49.401      52.000
 49.411      52.000
 49.421      52.000
 49.431      52.000
 49.441      52.000
 49.451      52.000
 49.461      52.000
 49.471      52.000
 49.481      52.000
 49.491      52.000
 49.501      52.000
 49.511      52.000
 49.521      52.000
 49.531      52.000
 49.541      52.000
 49.551      52.000
 49.561      52.000
 49.571      52.000
 49.581      52.000
 49.591      52.000
 49.601      52.000
 49.611      52.000
 49.621      52.000
 49.631      52.000
 49.641      52.000
 49.651      52.000
 49.661      52.000
 49.671      52.000
 49.681      52.000
 49.691      52.000
 49.701      52.000
 49.711      52.000
 49.721      52.000
 49.731      52.000
 49.741      52.000
 49.751      52.000
 49.761      52.000
 49.771      52.000
 49.781      52.000
 49.791      52.000
 49.802      52.000
 49.812      52.000
 49.822      52.000
 49.832      52.000
 49.842      52.000
 49.852      52.000
 49.862      52.000
 49.872      52.000
 49.882      52.000
 49.892      52.000
 49.902      52.000
 49.912      52.000
 49.922      52.000
 49.932      52.000
 49.942      52.000
 49.952      52.000
 49.962      52.000
 49.972      52.000
 49.982      52.000
 49.992      52.000
 50.002      52.000
 50.012      52.000
 50.022      52.000
 50.032      52.000
 50.042      52.000
 50.052      52.000
 50.062      52.000
 50.072      52.000
 50.082      52.000
 50.092      52.000
 50.102      52.000
 50.112      52.000
 50.122      52.000
 50.132      52.000
 50.142      52.000
 50.152      52.000
 50.162      52.000
 50.172      52.000
 50.182      52.000
 50.192      52.000
 50.202      52.000
 50.212      52.000
 50.222      52.000
 50.232      52.000
 50.242      52.000
 50.252      52.000
 50.262      52.000
 50.272      52.000
 50.282      52.000
 50.292      52.000
 50.302      52.000
 50.312      52.000
 50.322      52.000
 50.332      52.000
 50.342      52.000
 50.353      52.000
 50.363      52.000
 50.373      52.000
 50.383      52.000
 50.393      52.000
 50.403      52.000
 50.413      52.000
 50.423      52.000
 50.433      52.000
 50.443      52.000
 50.453      52.000
 50.463      52.000
 50.473      52.000
 50.483      52.000
 50.493      52.000
 50.503      52.000
 50.513      52.000
 50.523      52.000
 50.533      52.147
 50.543      52.149
 50.553      52.152
 50.563      52.155
 50.573      52.157
 50.583      52.160
 50.593      52.163
 50.603      52.166
 50.613      52.169
 50.623      52.172
 50.633      52.175
 50.643      52.179
 50.653      52.182
 50.663      52.185
 50.673      52.189
 50.683      52.193
 50.693      52.196
 50.703      52.200
 50.713      52.204
 50.723      52.209
 50.733      52.213
 50.743      52.217
 50.753      52.222
 50.763      52.226
 50.773      52.231
 50.783      52.236
 50.793      52.241
 50.803      52.247
 50.813      52.252
 50.823      52.258
 50.833      52.264
 50.843      52.270
 50.853      52.276
 50.863      52.282
 50.873      52.289
 50.883      52.296
 50.893      52.303
 50.903      52.311
 50.914      52.318
 50.924      52.326
 50.934      52.335
 50.944      52.343
 50.954      52.352
 50.964      52.362
 50.974      52.372
 50.984      52.382
 50.994      52.392
 51.004      52.403
 51.014      52.415
 51.024      52.427
 51.034      52.439
 51.044      52.452
 51.054      52.466
 51.064      52.480
 51.074      52.495
 51.084      52.511
 51.094      52.527
 51.104      52.544
 51.114      52.562
 51.124      52.581
 51.134      52.601
 51.144      52.622
 51.154      52.644
 51.164      52.667
 51.174      52.691
 51.184      52.717
 51.194      52.744
 51.204      52.773
 51.214      52.804
 51.224      52.836
 51.234      52.870
 51.244      52.907
 51.254      52.945
 51.264      52.986
 51.274      53.030
 51.284      53.077
 51.294      53.127
 51.304      53.181
 51.314      53.239
 51.324      53.300
 51.334      53.367
 51.344      53.439
 51.354      53.517
 51.364      53.602
 51.374      53.695
 51.384      53.798
 51.394      53.914
 51.404      54.046
 51.414      54.203
 51.424      54.392
 51.434      54.631
 51.444      54.941
 51.454      55.357
 51.465      55.929
 51.475      56.730
 51.485      57.856
 51.495      59.443
 51.505      61.665
 51.515      64.746
 51.525      68.959
 51.535      74.632
 51.545      82.126
 51.555      91.840
 51.565     104.169
 51.575     119.483
 51.585     138.074
 51.595     160.112
 51.605     185.604
 51.615     214.308
 51.625     245.753
 51.635     279.186
 51.645     313.584
 51.655     347.685
 51.665     380.054
 51.675     409.118
 51.685     433.345
 51.695     451.325
 51.705     461.929
 51.715     464.453
 51.725     458.723
 51.735     445.130
 51.745     424.559
 51.755     398.265
 51.765     367.730
 51.775     334.512
 51.785     300.132
 51.795     265.959
 51.805     233.195
 51.815     202.745
 51.825     175.256
 51.835     151.104
 51.845     130.420
 51.855     113.130
 51.865      99.021
 51.875      87.759
 51.885      78.959
 51.895      72.222
 51.905      67.162
 51.915      63.425
 51.925      60.709
 51.935      58.759
 51.945      57.370
 51.955      56.385
 51.965      55.683
 51.975      55.179
 51.985      54.809
 51.995      54.531
 52.005      54.313
 52.015      54.138
 52.026      53.992
 52.036      53.867
 52.046      53.756
 52.056      53.657
 52.066      53.568
 52.076      53.486
 52.086      53.410
 52.096      53.340
 52.106      53.276
 52.116      53.216
 52.126      53.160
 52.136      53.107
 52.146      53.059
 52.156      53.013
 52.166      52.970
 52.176      52.930
 52.186      52.892
 52.196      52.857
 52.206      52.823
 52.216      52.791
 52.226      52.762
 52.236      52.733
 52.246      52.707
 52.256      52.682
 52.266      52.658
 52.276      52.635
 52.286      52.613
 52.296      52.593
 52.306      52.573
 52.316      52.555
 52.326      52.537
 52.336      52.520
 52.346      52.504
 52.356      52.489
 52.366      52.474
 52.376      52.460
 52.386      52.447
 52.396      52.434
 52.406      52.422
 52.416      52.410
 52.426      52.399
 52.436      52.388
 52.446      52.378
 52.456      52.368
 52.466      52.358
 52.476      52.349
 52.486      52.340
 52.496      52.331
 52.506      52.323
 52.516      52.315
 52.526      52.308
 52.536      52.300
 52.546      52.293
 52.556      52.286
 52.566      52.280
 52.576      52.273
 52.587      52.267
 52.597      52.261
 52.607      52.255
 52.617      52.250
 52.627      52.244
 52.637      52.239
 52.647      52.234
 52.657      52.229
 52.667      52.224
 52.677      52.220
 52.687      52.215
 52.697      52.211
 52.707      52.207
 52.717      52.203
 52.727      52.199
 52.737      52.195
 52.747      52.191
 52.757      52.188
 52.767      52.184
 52.777      52.181
 52.787      52.177
 52.797      52.174
 52.807      52.171
 52.817      52.168
 52.827      52.165
 52.837      52.162
 52.847      52.159
 52.857      52.156
 52.867      52.154
 52.877      52.151
 52.887      52.149
 52.897      52.000
 52.907      52.000
 52.917      52.000
 52.927      52.000
 52.937      52.000
 52.947      52.000
 52.957      52.000
 52.967      52.000
 52.977      52.000
 52.987      52.000
 52.997      52.000
 53.007      52.000
 53.017      52.000
 53.027      52.000
 53.037      52.000
 53.047      52.000
 53.057      52.000
 53.067      52.000
 53.077      52.000
 53.087      52.000
 53.097      52.000
 53.107      52.000
 53.117      52.000
 53.127      52.000
 53.138      52.000
 53.148      52.000
 53.158      52.000
 53.168      52.000
 53.178      52.000
 53.188      52.000
 53.198      52.000
 53.208      52.000
 53.218      52.000
 53.228      52.000
 53.238      52.000
 53.248      52.000
 53.258      52.000
 53.268      52.000
 53.278      52.000
 53.288      52.000
 53.298      52.000
 53.308      52.000
 53.318      52.000
 53.328      52.000
 53.338      52.000
 53.348      52.000
 53.358      52.000
 53.368      52.000
 53.378      52.000
 53.388      52.000
 53.398      52.000
 53.408      52.000
 53.418      52.000
 53.428      52.000
 53.438      52.000
 53.448      52.000
 53.458      52.000
 53.468      52.000
 53.478      52.000
 53.488      52.000
 53.498      52.000
 53.508      52.000
 53.518      52.000
 53.528      52.000
 53.538      52.000
 53.548      52.000
 53.558      52.000
 53.568      52.000
 53.578      52.000
 53.588      52.000
 53.598      52.000
 53.608      52.000
 53.618      52.000
 53.628      52.000
 53.638      52.000
 53.648      52.000
 53.658      52.000
 53.668      52.000
 53.678      52.000
 53.688      52.000
 53.699      52.000
 53.709      52.000
 53.719      52.000
 53.729      52.000
 53.739      52.000
 53.749      52.000
 53.759      52.000
 53.769      52.000
 53.779      52.000
 53.789      52.000
 53.799      52.000
 53.809      52.000
 53.819      52.000
 53.829      52.000
 53.839      52.000
 53.849      52.000
 53.859      52.000
 53.869      52.000
 53.879      52.000
 53.889      52.000
 53.899      52.000
 53.909      52.000
 53.919      52.000
 53.929      52.000
 53.939      52.000
 53.949      52.000
 53.959      52.000
 53.969      52.000
 53.979      52.000
 53.989      52.000
 53.999      52.000
 54.009      52.000
 54.019      52.000
 54.029      52.000
 54.039      52.000
 54.049      52.000
 54.059      52.000
 54.069      52.000
 54.079      52.000
 54.089      52.000
 54.099      52.000
 54.109      52.000
 54.119      52.000
 54.129      52.000
 54.139      52.000
 54.149      52.000
 54.159      52.000
 54.169      52.000
 54.179      52.000
 54.189      52.000
 54.199      52.000
 54.209      52.000
 54.219      52.000
 54.229      52.000
 54.239      52.000
 54.250      52.000
 54.260      52.000
 54.270      52.000
 54.280      52.000
 54.290      52.000
 54.300      52.000
 54.310      52.000
 54.320      52.000
 54.330      52.000
 54.340      52.000
 54.350      52.000
 54.360      52.000
 54.370      52.000
 54.380      52.000
 54.390      52.000
 54.400      52.000
 54.410      52.000
 54.420      52.000
 54.430      52.000
 54.440      52.000
 54.450      52.000
 54.460      52.000
 54.470      52.000
 54.480      52.000
 54.490      52.000
 54.500      52.000
 54.510      52.000
 54.520      52.000
 54.530      52.000
 54.540      52.000
 54.550      52.000
 54.560      52.000
 54.570      52.000
 54.580      52.000
 54.590      52.000
 54.600      52.000
 54.610      52.000
 54.620      52.000
 54.630      52.000
 54.640      52.000
 54.650      52.000
 54.660      52.000
 54.670      52.000
 54.680      52.000
 54.690      52.000
 54.700      52.000
 54.710      52.000
 54.720      52.000
 54.730      52.000
 54.740      52.000
 54.750      52.000
 54.760      52.000
 54.770      52.000
 54.780      52.000
 54.790      52.000
 54.800      52.000
 54.811      52.000
 54.821      52.000
 54.831      52.000
 54.841      52.000
 54.851      52.000
 54.861      52.000
 54.871      52.000
 54.881      52.000
 54.891      52.000
 54.901      52.000
 54.911      52.000
 54.921      52.000
 54.931      52.000
 54.941      52.000
 54.951      52.000
 54.961      52.000
 54.971      52.000
 54.981      52.000
 54.991      52.000
 55.001      52.000
 55.011      52.000
 55.021      52.000
 55.031      52.000
 55.041      52.000
 55.051      52.000
 55.061      52.000
 55.071      52.000
 55.081      52.000
 55.091      52.000
 55.101      52.000
 55.111      52.000
 55.121      52.000
 55.131      52.000
 55.141      52.000
 55.151      52.000
 55.161      52.000
 55.171      52.000
 55.181      52.000
 55.191      52.000
 55.201      52.000
 55.211      52.000
 55.221      52.000
 55.231      52.000
 55.241      52.000
 55.251      52.000
 55.261      52.000
 55.271      52.000
 55.281      52.000
 55.291      52.000
 55.301      52.000
 55.311      52.000
 55.321      52.000
 55.331      52.000
 55.341      52.000
 55.351      52.000
 55.362      52.000
 55.372      52.000
 55.382      52.000
 55.392      52.000
 55.402      52.000
 55.412      52.000
 55.422      52.000
 55.432      52.000
 55.442      52.000
 55.452      52.000
 55.462      52.000
 55.472      52.000
 55.482      52.000
 55.492      52.000
 55.502      52.000
 55.512      52.000
 55.522      52.000
 55.532      52.000
 55.542      52.000
 55.552      52.000
 55.562      52.000
 55.572      52.000
 55.582      52.000
 55.592      52.000
 55.602      52.000
 55.612      52.000
 55.622      52.000
 55.632      52.000
 55.642      52.000
 55.652      52.000
 55.662      52.000
 55.672      52.000
 55.682      52.000
 55.692      52.000
 55.702      52.000
 55.712      52.000
 55.722      52.000
 55.732      52.000
 55.742      52.000
 55.752      52.000
 55.762      52.000
 55.772      52.000
 55.782      52.000
 55.792      52.000
 55.802      52.000
 55.812      52.000
 55.822      52.000
 55.832      52.000
 55.842      52.000
 55.852      52.000
 55.862      52.000
 55.872      52.000
 55.882      52.000
 55.892      52.000
 55.902      52.000
 55.912      52.000
 55.923      52.000
 55.933      52.000
 55.943      52.000
 55.953      52.000
 55.963      52.000
 55.973      52.000
 55.983      52.000
 55.993      52.000
 56.003      52.000
 56.013      52.000
 56.023      52.000
 56.033      52.000
 56.043      52.000
 56.053      52.000
 56.063      52.000
 56.073      52.000
 56.083      52.000
 56.093      52.000
 56.103      52.000
 56.113      52.000
 56.123      52.000
 56.133      52.000
 56.143      52.000
 56.153      52.000
 56.163      52.000
 56.173      52.000
 56.183      52.000
 56.193      52.000
 56.203      52.000
 56.213      52.000
 56.223      52.000
 56.233      52.000
 56.243      52.000
 56.253      52.000
 56.263      52.000
 56.273      52.000
 56.283      52.000
 56.293      52.000
 56.303      52.000
 56.313      52.000
 56.323      52.000
 56.333      52.000
 56.343      52.000
 56.353      52.000
 56.363      52.000
 56.373      52.000
 56.383      52.000
 56.393      52.000
 56.403      52.000
 56.413      52.000
 56.423      52.000
 56.433      52.000
 56.443      52.000
 56.453      52.000
 56.463      52.000
 56.474      52.000
 56.484      52.000
 56.494      52.000
 56.504      52.000
 56.514      52.000
 56.524      52.000
 56.534      52.000
 56.544      52.000
 56.554      52.000
 56.564      52.000
 56.574      52.000
 56.584      52.000
 56.594      52.000
 56.604      52.000
 56.614      52.000
 56.624      52.000
 56.634      52.000
 56.644      52.000
 56.654      52.000
 56.664      52.000
 56.674      52.000
 56.684      52.000
 56.694      52.000
 56.704      52.000
 56.714      52.000
 56.724      52.000
 56.734      52.000
 56.744      52.000
 56.754      52.000
 56.764      52.000
 56.774      52.000
 56.784      52.000
 56.794      52.000
 56.804      52.000
 56.814      52.000
 56.824      52.000
 56.834      52.000
 56.844      52.000
 56.854      52.000
 56.864      52.000
 56.874      52.000
 56.884      52.000
 56.894      52.000
 56.904      52.000
 56.914      52.000
 56.924      52.000
 56.934      52.000
 56.944      52.000
 56.954      52.000
 56.964      52.000
 56.974      52.000
 56.984      52.000
 56.994      52.000
 57.004      52.000
 57.014      52.000
 57.024      52.000
 57.035      52.000
 57.045      52.000
 57.055      52.000
 57.065      52.000
 57.075      52.000
 57.085      52.000
 57.095      52.000
 57.105      52.000
 57.115      52.000
 57.125      52.000
 57.135      52.000
 57.145      52.000
 57.155      52.000
 57.165      52.000
 57.175      52.000
 57.185      52.000
 57.195      52.000
 57.205      52.000
 57.215      52.000
 57.225      52.000
 57.235      52.000
 57.245      52.000
 57.255      52.000
 57.265      52.000
 57.275      52.000
 57.285      52.000
 57.295      52.000
 57.305      52.000
 57.315      52.000
 57.325      52.000
 57.335      52.000
 57.345      52.000
 57.355      52.000
 57.365      52.000
 57.375      52.000
 57.385      52.000
 57.395      52.000
 57.405      52.000
 57.415      52.000
 57.425      52.000
 57.435      52.000
 57.445      52.000
 57.455      52.000
 57.465      52.000
 57.475      52.000
 57.485      52.000
 57.495      52.000
 57.505      52.000
 57.515      52.000
 57.525      52.000
 57.535      52.000
 57.545      52.000
 57.555      52.000
 57.565      52.000
 57.575      52.000
 57.585      52.000
 57.596      52.000
 57.606      52.000
 57.616      52.000
 57.626      52.000
 57.636      52.000
 57.646      52.000
 57.656      52.000
 57.666      52.000
 57.676      52.000
 57.686      52.000
 57.696      52.000
 57.706      52.000
 57.716      52.000
 57.726      52.000
 57.736      52.000
 57.746      52.000
 57.756      52.000
 57.766      52.000
 57.776      52.000
 57.786      52.000
 57.796      52.000
 57.806      52.000
 57.816      52.000
 57.826      52.000
 57.836      52.000
 57.846      52.000
 57.856      52.000
 57.866      52.000
 57.876      52.000
 57.886      52.000
 57.896      52.000
 57.906      52.000
 57.916      52.000
 57.926      52.000
 57.936      52.000
 57.946      52.000
 57.956      52.000
 57.966      52.000
 57.976      52.000
 57.986      52.000
 57.996      52.000
 58.006      52.000
 58.016      52.000
 58.026      52.000
 58.036      52.000
 58.046      52.000
 58.056      52.000
 58.066      52.000
 58.076      52.000
 58.086      52.000
 58.096      52.000
 58.106      52.000
 58.116      52.000
 58.126      52.000
 58.136      52.000
 58.147      52.000
 58.157      52.000
 58.167      52.000
 58.177      52.000
 58.187      52.000
 58.197      52.000
 58.207      52.000
 58.217      52.000
 58.227      52.000
 58.237      52.000
 58.247      52.000
 58.257      52.000
 58.267      52.000
 58.277      52.000
 58.287      52.000
 58.297      52.000
 58.307      52.000
 58.317      52.000
 58.327      52.000
 58.337      52.000
 58.347      52.000
 58.357      52.000
 58.367      52.000
 58.377      52.000
 58.387      52.000
 58.397      52.000
 58.407      52.000
 58.417      52.000
 58.427      52.000
 58.437      52.000
 58.447      52.000
 58.457      52.000
 58.467      52.000
 58.477      52.000
 58.487      52.000
 58.497      52.000
 58.507      52.000
 58.517      52.000
 58.527      52.000
 58.537      52.000
 58.547      52.000
 58.557      52.000
 58.567      52.000
 58.577      52.000
 58.587      52.000
 58.597      52.000
 58.607      52.000
 58.617      52.000
 58.627      52.000
 58.637      52.000
 58.647      52.000
 58.657      52.000
 58.667      52.000
 58.677      52.000
 58.687      52.000
 58.697      52.000
 58.708      52.000
 58.718      52.000
 58.728      52.000
 58.738      52.000
 58.748      52.000
 58.758      52.000
 58.768      52.000
 58.778      52.000
 58.788      52.000
 58.798      52.000
 58.808      52.000
 58.818      52.000
 58.828      52.000
 58.838      52.000
 58.848      52.000
 58.858      52.000
 58.868      52.000
 58.878      52.000
 58.888      52.000
 58.898      52.000
 58.908      52.000
 58.918      52.000
 58.928      52.000
 58.938      52.000
 58.948      52.000
 58.958      52.000
 58.968      52.000
 58.978      52.000
 58.988      52.000
 58.998      52.000
 59.008      52.000
 59.018      52.000
 59.028      52.000
 59.038      52.000
 59.048      52.000
 59.058      52.000
 59.068      52.000
 59.078      52.000
 59.088      52.000
 59.098      52.000
 59.108      52.000
 59.118      52.000
 59.128      52.000
 59.138      52.000
 59.148      52.000
 59.158      52.000
 59.168      52.000
 59.178      52.000
 59.188      52.000
 59.198      52.000
 59.208      52.000
 59.218      52.000
 59.228      52.000
 59.238      52.000
 59.248      52.000
 59.259      52.000
 59.269      52.000
 59.279      52.000
 59.289      52.000
 59.299      52.000
 59.309      52.000
 59.319      52.000
 59.329      52.000
 59.339      52.000
 59.349      52.000
 59.359      52.000
 59.369      52.000
 59.379      52.000
 59.389      52.000
 59.399      52.000
 59.409      52.000
 59.419      52.000
 59.429      52.000
 59.439      52.000
 59.449      52.000
 59.459      52.000
 59.469      52.000
 59.479      52.000
 59.489      52.000
 59.499      52.000
 59.509      52.000
 59.519      52.000
 59.529      52.000
 59.539      52.000
 59.549      52.000
 59.559      52.000
 59.569      52.000
 59.579      52.000
 59.589      52.000
 59.599      52.000
 59.609      52.000
 59.619      52.000
 59.629      52.000
 59.639      52.000
 59.649      52.000
 59.659      52.000
 59.669      52.000
 59.679      52.000
 59.689      52.000
 59.699      52.000
 59.709      52.000
 59.719      52.000
 59.729      52.000
 59.739      52.000
 59.749      52.000
 59.759      52.000
 59.769      52.000
 59.779      52.000
 59.789      52.000
 59.799      52.000
 59.809      52.000
 59.820      52.000
 59.830      52.000
 59.840      52.000
 59.850      52.000
 59.860      52.000
 59.870      52.000
 59.880      52.000
 59.890      52.000
 59.900      52.000
 59.910      52.000
 59.920      52.000
 59.930      52.000
 59.940      52.000
 59.950      52.000
 59.960      52.000
 59.970      52.000
 59.980      52.000
 59.990      52.000
 60.000      52.000
 60.010      52.000
 60.020      52.000
 60.030      52.000
 60.040      52.000
 60.050      52.000
 60.060      52.000
 60.070      52.000
 60.080      52.000
 60.090      52.000
 60.100      52.000
 60.110      52.000
 60.120      52.000
 60.130      52.000
 60.140      52.000
 60.150      52.000
 60.160      52.000
 60.170      52.000
 60.180      52.000
 60.190      52.000
 60.200      52.000
 60.210      52.000
 60.220      52.000
 60.230      52.000
 60.240      52.000
 60.250      52.000
 60.260      52.000
 60.270      52.000
 60.280      52.000
 60.290      52.000
 60.300      52.000
 60.310      52.000
 60.320      52.000
 60.330      52.000
 60.340      52.000
 60.350      52.000
 60.360      52.000
 60.371      52.000
 60.381      52.000
 60.391      52.000
 60.401      52.000
 60.411      52.000
 60.421      52.000
 60.431      52.000
 60.441      52.000
 60.451      52.000
 60.461      52.000
 60.471      52.000
 60.481      52.000
 60.491      52.000
 60.501      52.000
 60.511      52.000
 60.521      52.000
 60.531      52.000
 60.541      52.000
 60.551      52.000
 60.561      52.000
 60.571      52.000
 60.581      52.000
 60.591      52.000
 60.601      52.000
 60.611      52.000
 60.621      52.000
 60.631      52.000
 60.641      52.000
 60.651      52.000
 60.661      52.000
 60.671      52.000
 60.681      52.000
 60.691      52.000
 60.701      52.000
 60.711      52.000
 60.721      52.000
 60.731      52.000
 60.741      52.000
 60.751      52.000
 60.761      52.000
 60.771      52.000
 60.781      52.000
 60.791      52.000
 60.801      52.000
 60.811      52.000
 60.821      52.000
 60.831      52.000
 60.841      52.000
 60.851      52.000
 60.861      52.000
 60.871      52.000
 60.881      52.000
 60.891      52.000
 60.901      52.000
 60.911      52.000
 60.921      52.000
 60.932      52.000
 60.942      52.000
 60.952      52.000
 60.962      52.000
 60.972      52.000
 60.982      52.000
 60.992      52.000
 61.002      52.000
 61.012      52.000
 61.022      52.000
 61.032      52.000
 61.042      52.000
 61.052      52.000
 61.062      52.000
 61.072      52.000
 61.082      52.000
 61.092      52.000
 61.102      52.000
 61.112      52.000
 61.122      52.000
 61.132      52.000
 61.142      52.000
 61.152      52.000
 61.162      52.000
 61.172      52.000
 61.182      52.000
 61.192      52.000
 61.202      52.000
 61.212      52.000
 61.222      52.000
 61.232      52.000
 61.242      52.000
 61.252      52.000
 61.262      52.000
 61.272      52.000
 61.282      52.000
 61.292      52.000
 61.302      52.000
 61.312      52.000
 61.322      52.000
 61.332      52.000
 61.342      52.000
 61.352      52.000
 61.362      52.000
 61.372      52.000
 61.382      52.000
 61.392      52.000
 61.402      52.000
 61.412      52.000
 61.422      52.000
 61.432      52.000
 61.442      52.000
 61.452      52.000
 61.462      52.000
 61.472      52.000
 61.483      52.000
 61.493      52.000
 61.503      52.000
 61.513      52.000
 61.523      52.000
 61.533      52.000
 61.543      52.000
 61.553      52.000
 61.563      52.000
 61.573      52.000
 61.583      52.000
 61.593      52.000
 61.603      52.000
 61.613      52.000
 61.623      52.000
 61.633      52.000
 61.643      52.000
 61.653      52.000
 61.663      52.000
 61.673      52.000
 61.683      52.000
 61.693      52.000
 61.703      52.000
 61.713      52.000
 61.723      52.000
 61.733      52.000
 61.743      52.000
 61.753      52.000
 61.763      52.000
 61.773      52.000
 61.783      52.000
 61.793      52.000
 61.803      52.000
 61.813      52.000
 61.823      52.000
 61.833      52.000
 61.843      52.000
 61.853      52.000
 61.863      52.000
 61.873      52.000
 61.883      52.000
 61.893      52.000
 61.903      52.000
 61.913      52.000
 61.923      52.000
 61.933      52.000
 61.943      52.000
 61.953      52.000
 61.963      52.000
 61.973      52.000
 61.983      52.000
 61.993      52.000
 62.003      52.000
 62.013      52.000
 62.023      52.000
 62.033      52.000
 62.044      52.000
 62.054      52.000
 62.064      52.000
 62.074      52.000
 62.084      52.000
 62.094      52.000
 62.104      52.000
 62.114      52.000
 62.124      52.000
 62.134      52.000
 62.144      52.000
 62.154      52.000
 62.164      52.000
 62.174      52.000
 62.184      52.000
 62.194      52.000
 62.204      52.000
 62.214      52.000
 62.224      52.000
 62.234      52.000
 62.244      52.000
 62.254      52.000
 62.264      52.000
 62.274      52.000
 62.284      52.000
 62.294      52.000
 62.304      52.000
 62.314      52.000
 62.324      52.000
 62.334      52.000
 62.344      52.000
 62.354      52.000
 62.364      52.000
 62.374      52.000
 62.384      52.000
 62.394      52.000
 62.404      52.000
 62.414      52.000
 62.424      52.000
 62.434      52.000
 62.444      52.000
 62.454      52.000
 62.464      52.000
 62.474      52.000
 62.484      52.000
 62.494      52.000
 62.504      52.000
 62.514      52.000
 62.524      52.000
 62.534      52.000
 62.544      52.000
 62.554      52.000
 62.564      52.000
 62.574      52.000
 62.584      52.000
 62.595      52.000
 62.605      52.000
 62.615      52.000
 62.625      52.000
 62.635      52.000
 62.645      52.000
 62.655      52.000
 62.665      52.000
 62.675      52.000
 62.685      52.000
 62.695      52.000
 62.705      52.000
 62.715      52.000
 62.725      52.000
 62.735      52.000
 62.745      52.000
 62.755      52.000
 62.765      52.000
 62.775      52.000
 62.785      52.000
 62.795      52.000
 62.805      52.000
 62.815      52.000
 62.825      52.000
 62.835      52.000
 62.845      52.000
 62.855      52.000
 62.865      52.000
 62.875      52.000
 62.885      52.000
 62.895      52.000
 62.905      52.000
 62.915      52.000
 62.925      52.000
 62.935      52.000
 62.945      52.000
 62.955      52.000
 62.965      52.000
 62.975      52.000
 62.985      52.000
 62.995      52.000
 63.005      52.000
 63.015      52.000
 63.025      52.000
 63.035      52.000
 63.045      52.000
 63.055      52.000
 63.065      52.000
 63.075      52.000
 63.085      52.000
 63.095      52.000
 63.105      52.000
 63.115      52.000
 63.125      52.000
 63.135      52.000
 63.145      52.000
 63.156      52.000
 63.166      52.000
 63.176      52.000
 63.186      52.000
 63.196      52.000
 63.206      52.000
 63.216      52.000
 63.226      52.000
 63.236      52.000
 63.246      52.000
 63.256      52.000
 63.266      52.000
 63.276      52.000
 63.286      52.000
 63.296      52.000
 63.306      52.000
 63.316      52.000
 63.326      52.000
 63.336      52.000
 63.346      52.000
 63.356      52.000
 63.366      52.000
 63.376      52.000
 63.386      52.000
 63.396      52.000
 63.406      52.000
 63.416      52.000
 63.426      52.000
 63.436      52.000
 63.446      52.000
 63.456      52.000
 63.466      52.000
 63.476      52.000
 63.486      52.000
 63.496      52.000
 63.506      52.000
 63.516      52.000
 63.526      52.000
 63.536      52.000
 63.546      52.000
 63.556      52.000
 63.566      52.000
 63.576      52.000
 63.586      52.000
 63.596      52.000
 63.606      52.000
 63.616      52.000
 63.626      52.000
 63.636      52.000
 63.646      52.000
 63.656      52.000
 63.666      52.000
 63.676      52.000
 63.686      52.000
 63.696      52.000
 63.706      52.000
 63.717      52.000
 63.727      52.000
 63.737      52.000
 63.747      52.000
 63.757      52.000
 63.767      52.000
 63.777      52.000
 63.787      52.000
 63.797      52.000
 63.807      52.000
 63.817      52.000
 63.827      52.000
 63.837      52.000
 63.847      52.000
 63.857      52.000
 63.867      52.000
 63.877      52.000
 63.887      52.000
 63.897      52.000
 63.907      52.000
 63.917      52.000
 63.927      52.000
 63.937      52.000
 63.947      52.000
 63.957      52.000
 63.967      52.000
 63.977      52.000
 63.987      52.000
 63.997      52.000
 64.007      52.000
 64.017      52.000
 64.027      52.000
 64.037      52.000
 64.047      52.000
 64.057      52.000
 64.067      52.000
 64.077      52.000
 64.087      52.000
 64.097      52.000
 64.107      52.000
 64.117      52.000
 64.127      52.000
 64.137      52.000
 64.147      52.000
 64.157      52.000
 64.167      52.000
 64.177      52.000
 64.187      52.000
 64.197      52.000
 64.207      52.000
 64.217      52.000
 64.227      52.000
 64.237      52.000
 64.247      52.000
 64.257      52.000
 64.268      52.000
 64.278      52.000
 64.288      52.000
 64.298      52.000
 64.308      52.000
 64.318      52.000
 64.328      52.000
 64.338      52.000
 64.348      52.000
 64.358      52.000
 64.368      52.000
 64.378      52.000
 64.388      52.000
 64.398      52.000
 64.408      52.000
 64.418      52.000
 64.428      52.000
 64.438      52.000
 64.448      52.000
 64.458      52.000
 64.468      52.000
 64.478      52.000
 64.488      52.000
 64.498      52.000
 64.508      52.000
 64.518      52.000
 64.528      52.000
 64.538      52.000
 64.548      52.000
 64.558      52.000
 64.568      52.000
 64.578      52.000
 64.588      52.000
 64.598      52.000
 64.608      52.000
 64.618      52.000
 64.628      52.000
 64.638      52.000
 64.648      52.000
 64.658      52.000
 64.668      52.000
 64.678      52.000
 64.688      52.000
 64.698      52.000
 64.708      52.000
 64.718      52.000
 64.728      52.000
 64.738      52.000
 64.748      52.000
 64.758      52.000
 64.768      52.000
 64.778      52.000
 64.788      52.000
 64.798      52.000
 64.808      52.000
 64.818      52.000
 64.829      52.000
 64.839      52.000
 64.849      52.000
 64.859      52.000
 64.869      52.000
 64.879      52.000
 64.889      52.000
 64.899      52.000
 64.909      52.000
 64.919      52.000
 64.929      52.000
 64.939      52.000
 64.949      52.000
 64.959      52.000
 64.969      52.000
 64.979      52.000
 64.989      52.000
 64.999      52.000
 65.009      52.000
 65.019      52.000
 65.029      52.000
 65.039      52.000
 65.049      52.000
 65.059      52.000
 65.069      52.000
 65.079      52.000
 65.089      52.000
 65.099      52.000
 65.109      52.000
 65.119      52.000
 65.129      52.000
 65.139      52.000
 65.149      52.000
 65.159      52.000
 65.169      52.000
 65.179      52.000
 65.189      52.000
 65.199      52.000
 65.209      52.000
 65.219      52.000
 65.229      52.000
 65.239      52.000
 65.249      52.000
 65.259      52.000
 65.269      52.000
 65.279      52.000
 65.289      52.000
 65.299      52.000
 65.309      52.000
 65.319      52.000
 65.329      52.000
 65.339      52.000
 65.349      52.000
 65.359      52.000
 65.369      52.000
 65.380      52.000
 65.390      52.000
 65.400      52.000
 65.410      52.000
 65.420      52.000
 65.430      52.000
 65.440      52.000
 65.450      52.000
 65.460      52.000
 65.470      52.000
 65.480      52.000
 65.490      52.000
 65.500      52.000
 65.510      52.000
 65.520      52.000
 65.530      52.000
 65.540      52.000
 65.550      52.000
 65.560      52.000
 65.570      52.000
 65.580      52.000
 65.590      52.000
 65.600      52.000
 65.610      52.000
 65.620      52.000
 65.630      52.000
 65.640      52.000
 65.650      52.000
 65.660      52.000
 65.670      52.000
 65.680      52.000
 65.690      52.000
 65.700      52.000
 65.710      52.000
 65.720      52.000
 65.730      52.000
 65.740      52.000
 65.750      52.000
 65.760      52.000
 65.770      52.000
 65.780      52.000
 65.790      52.000
 65.800      52.000
 65.810      52.000
 65.820      52.000
 65.830      52.000
 65.840      52.000
 65.850      52.000
 65.860      52.000
 65.870      52.000
 65.880      52.000
 65.890      52.000
 65.900      52.000
 65.910      52.000
 65.920      52.000
 65.930      52.000
 65.941      52.000
 65.951      52.000
 65.961      52.000
 65.971      52.000
 65.981      52.000
 65.991      52.000
 66.001      52.000
 66.011      52.000
 66.021      52.000
 66.031      52.000
 66.041      52.000
 66.051      52.299
 66.061      52.303
 66.071      52.307
 66.081      52.311
 66.091      52.315
 66.101      52.319
 66.111      52.324
 66.121      52.328
 66.131      52.332
 66.141      52.337
 66.151      52.341
 66.161      52.346
 66.171      52.351
 66.181      52.356
 66.191      52.361
 66.201      52.366
 66.211      52.371
 66.221      52.377
 66.231      52.382
 66.241      52.388
 66.251      52.393
 66.261      52.399
 66.271      52.405
 66.281      52.411
 66.291      52.418
 66.301      52.424
 66.311      52.431
 66.321      52.437
 66.331      52.444
 66.341      52.451
 66.351      52.458
 66.361      52.466
 66.371      52.473
 66.381      52.481
 66.391      52.489
 66.401      52.497
 66.411      52.505
 66.421      52.514
 66.431      52.522
 66.441      52.531
 66.451      52.540
 66.461      52.550
 66.471      52.559
 66.481      52.569
 66.492      52.580
 66.502      52.590
 66.512      52.601
 66.522      52.612
 66.532      52.623
 66.542      52.635
 66.552      52.647
 66.562      52.659
 66.572      52.672
 66.582      52.685
 66.592      52.698
 66.602      52.712
 66.612      52.726
 66.622      52.741
 66.632      52.756
 66.642      52.771
 66.652      52.788
 66.662      52.804
 66.672      52.821
 66.682      52.839
 66.692      52.857
 66.702      52.876
 66.712      52.895
 66.722      52.915
 66.732      52.936
 66.742      52.957
 66.752      52.980
 66.762      53.003
 66.772      53.026
 66.782      53.051
 66.792      53.077
 66.802      53.103
 66.812      53.130
 66.822      53.159
 66.832      53.188
 66.842      53.219
 66.852      53.251
 66.862      53.284
 66.872      53.319
 66.882      53.354
 66.892      53.392
 66.902      53.431
 66.912      53.471
 66.922      53.513
 66.932      53.558
 66.942      53.604
 66.952      53.652
 66.962      53.702
 66.972      53.754
 66.982      53.809
 66.992      53.867
 67.002      53.927
 67.012      53.990
 67.022      54.057
 67.032      54.127
 67.042      54.200
 67.053      54.277
 67.063      54.358
 67.073      54.444
 67.083      54.534
 67.093      54.629
 67.103      54.730
 67.113      54.837
 67.123      54.950
 67.133      55.071
 67.143      55.199
 67.153      55.337
 67.163      55.485
 67.173      55.645
 67.183      55.820
 67.193      56.014
 67.203      56.231
 67.213      56.478
 67.223      56.763
 67.233      57.101
 67.243      57.509
 67.253      58.011
 67.263      58.639
 67.273      59.437
 67.283      60.459
 67.293      61.780
 67.303      63.494
 67.313      65.713
 67.323      68.582
 67.333      72.276
 67.343      76.999
 67.353      82.992
 67.363      90.529
 67.373      99.915
 67.383     111.480
 67.393     125.571
 67.403     142.540
 67.413     162.725
 67.423     186.455
 67.433     213.946
 67.443     245.390
 67.453     280.856
 67.463     320.285
 67.473     363.464
 67.483     410.013
 67.493     459.371
 67.503     510.793
 67.513     563.358
 67.523     615.986
 67.533     667.462
 67.543     716.472
 67.553     761.686
 67.563     801.670
 67.573     835.166
 67.583     861.016
 67.593     878.275
 67.604     886.288
 67.614     884.743
 67.624     873.699
 67.634     853.585
 67.644     825.158
 67.654     789.437
 67.664     747.633
 67.674     701.035
 67.684     651.083
 67.694     599.096
 67.704     546.362
 67.714     494.054
 67.724     443.205
 67.734     394.679
 67.744     349.163
 67.754     307.159
 67.764     268.992
 67.774     234.821
 67.784     204.664
 67.794     178.413
 67.804     155.851
 67.814     136.738
 67.824     120.734
 67.834     107.495
 67.844      96.670
 67.854      87.914
 67.864      80.906
 67.874      75.351
 67.884      70.984
 67.894      67.577
 67.904      64.934
 67.914      62.893
 67.924      61.318
 67.934      60.101
 67.944      59.158
 67.954      58.421
 67.964      57.838
 67.974      57.369
 67.984      56.986
 67.994      56.666
 68.004      56.394
 68.014      56.158
 68.024      55.949
 68.034      55.762
 68.044      55.592
 68.054      55.436
 68.064      55.291
 68.074      55.157
 68.084      55.031
 68.094      54.913
 68.104      54.802
 68.114      54.697
 68.124      54.598
 68.134      54.504
 68.144      54.416
 68.154      54.332
 68.165      54.252
 68.175      54.176
 68.185      54.104
 68.195      54.035
 68.205      53.970
 68.215      53.907
 68.225      53.848
 68.235      53.791
 68.245      53.737
 68.255      53.685
 68.265      53.636
 68.275      53.588
 68.285      53.543
 68.295      53.500
 68.305      53.458
 68.315      53.418
 68.325      53.380
 68.335      53.343
 68.345      53.307
 68.355      53.273
 68.365      53.241
 68.375      53.209
 68.385      53.179
 68.395      53.150
 68.405      53.121
 68.415      53.094
 68.425      53.068
 68.435      53.043
 68.445      53.019
 68.455      52.995
 68.465      52.972
 68.475      52.950
 68.485      52.929
 68.495      52.909
 68.505      52.889
 68.515      52.870
 68.525      52.851
 68.535      52.833
 68.545      52.816
 68.555      52.799
 68.565      52.782
 68.575      52.766
 68.585      52.751
 68.595      52.736
 68.605      52.722
 68.615      52.707
 68.625      52.694
 68.635      52.680
 68.645      52.668
 68.655      52.655
 68.665      52.643
 68.675      52.631
 68.685      52.619
 68.695      52.608
 68.705      52.597
 68.715      52.587
 68.726      52.576
 68.736      52.566
 68.746      52.556
 68.756      52.547
 68.766      52.537
 68.776      52.528
 68.786      52.519
 68.796      52.511
 68.806      52.502
 68.816      52.494
 68.826      52.486
 68.836      52.478
 68.846      52.471
 68.856      52.463
 68.866      52.456
 68.876      52.449
 68.886      52.442
 68.896      52.435
 68.906      52.428
 68.916      52.422
 68.926      52.416
 68.936      52.409
 68.946      52.403
 68.956      52.397
 68.966      52.392
 68.976      52.386
 68.986      52.380
 68.996      52.375
 69.006      52.370
 69.016      52.364
 69.026      52.359
 69.036      52.354
 69.046      52.349
 69.056      52.345
 69.066      52.340
 69.076      52.335
 69.086      52.331
 69.096      52.326
 69.106      52.322
 69.116      52.318
 69.126      52.314
 69.136      52.310
 69.146      52.306
 69.156      52.302
 69.166      52.298
 69.176      52.000
 69.186      52.000
 69.196      52.000
 69.206      52.000
 69.216      52.000
 69.226      52.000
 69.236      52.000
 69.246      52.000
 69.256      52.000
 69.266      52.000
 69.277      52.000
 69.287      52.000
 69.297      52.000
 69.307      52.000
 69.317      52.000
 69.327      52.000
 69.337      52.000
 69.347      52.000
 69.357      52.000
 69.367      52.000
 69.377      52.000
 69.387      52.000
 69.397      52.000
 69.407      52.000
 69.417      52.000
 69.427      52.000
 69.437      52.000
 69.447      52.000
 69.457      52.000
 69.467      52.000
 69.477      52.000
 69.487      52.000
 69.497      52.000
 69.507      52.000
 69.517      52.000
 69.527      52.000
 69.537      52.000
 69.547      52.000
 69.557      52.000
 69.567      52.000
 69.577      52.000
 69.587      52.000
 69.597      52.000
 69.607      52.000
 69.617      52.000
 69.627      52.000
 69.637      52.000
 69.647      52.000
 69.657      52.000
 69.667      52.000
 69.677      52.000
 69.687      52.000
 69.697      52.000
 69.707      52.000
 69.717      52.000
 69.727      52.000
 69.737      52.000
 69.747      52.000
 69.757      52.000
 69.767      52.000
 69.777      52.000
 69.787      52.000
 69.797      52.000
 69.807      52.000
 69.817      52.000
 69.827      52.000
 69.838      52.000
 69.848      52.000
 69.858      52.000
 69.868      52.000
 69.878      52.000
 69.888      52.000
 69.898      52.000
 69.908      52.000
 69.918      52.000
 69.928      52.000
 69.938      52.000
 69.948      52.000
 69.958      52.000
 69.968      52.000
 69.978      52.000
 69.988      52.000
 69.998      52.000
 70.008      52.000
 70.018      52.000
 70.028      52.000
 70.038      52.000
 70.048      52.000
 70.058      52.000
 70.068      52.000
 70.078      52.000
 70.088      52.000
 70.098      52.000
 70.108      52.000
 70.118      52.000
 70.128      52.000
 70.138      52.000
 70.148      52.000
 70.158      52.000
 70.168      52.000
 70.178      52.000
 70.188      52.000
 70.198      52.000
 70.208      52.000
 70.218      52.000
 70.228      52.000
 70.238      52.000
 70.248      52.000
 70.258      52.000
 70.268      52.000
 70.278      52.000
 70.288      52.000
 70.298      52.000
 70.308      52.000
 70.318      52.000
 70.328      52.000
 70.338      52.000
 70.348      52.000
 70.358      52.000
 70.368      52.000
 70.378      52.000
 70.389      52.000
 70.399      52.000
 70.409      52.000
 70.419      52.000
 70.429      52.000
 70.439      52.000
 70.449      52.000
 70.459      52.000
 70.469      52.000
 70.479      52.000
 70.489      52.000
 70.499      52.000
 70.509      52.000
 70.519      52.000
 70.529      52.000
 70.539      52.000
 70.549      52.000
 70.559      52.000
 70.569      52.000
 70.579      52.000
 70.589      52.000
 70.599      52.000
 70.609      52.000
 70.619      52.000
 70.629      52.076
 70.639      52.076
 70.649      52.077
 70.659      52.078
 70.669      52.079
 70.679      52.080
 70.689      52.081
 70.699      52.082
 70.709      52.083
 70.719      52.084
 70.729      52.085
 70.739      52.086
 70.749      52.088
 70.759      52.089
 70.769      52.090
 70.779      52.091
 70.789      52.092
 70.799      52.093
 70.809      52.095
 70.819      52.096
 70.829      52.097
 70.839      52.098
 70.849      52.100
 70.859      52.101
 70.869      52.103
 70.879      52.104
 70.889      52.105
 70.899      52.107
 70.909      52.108
 70.919      52.110
 70.929      52.112
 70.939      52.113
 70.950      52.115
 70.960      52.117
 70.970      52.118
 70.980      52.120
 70.990      52.122
 71.000      52.124
 71.010      52.126
 71.020      52.128
 71.030      52.130
 71.040      52.132
 71.050      52.134
 71.060      52.136
 71.070      52.138
 71.080      52.140
 71.090      52.142
 71.100      52.145
 71.110      52.147
 71.120      52.150
 71.130      52.152
 71.140      52.155
 71.150      52.157
 71.160      52.160
 71.170      52.163
 71.180      52.166
 71.190      52.169
 71.200      52.172
 71.210      52.175
 71.220      52.178
 71.230      52.181
 71.240      52.185
 71.250      52.188
 71.260      52.192
 71.270      52.195
 71.280      52.199
 71.290      52.203
 71.300      52.207
 71.310      52.211
 71.320      52.215
 71.330      52.219
 71.340      52.224
 71.350      52.228
 71.360      52.233
 71.370      52.238
 71.380      52.243
 71.390      52.248
 71.400      52.254
 71.410      52.259
 71.420      52.265
 71.430      52.271
 71.440      52.277
 71.450      52.283
 71.460      52.290
 71.470      52.297
 71.480      52.304
 71.490      52.311
 71.501      52.319
 71.511      52.326
 71.521      52.335
 71.531      52.343
 71.541      52.352
 71.551      52.361
 71.561      52.370
 71.571      52.380
 71.581      52.390
 71.591      52.401
 71.601      52.412
 71.611      52.423
 71.621      52.435
 71.631      52.448
 71.641      52.461
 71.651      52.474
 71.661      52.488
 71.671      52.503
 71.681      52.519
 71.691      52.535
 71.701      52.552
 71.711      52.569
 71.721      52.588
 71.731      52.608
 71.741      52.628
 71.751      52.650
 71.761      52.672
 71.771      52.696
 71.781      52.721
 71.791      52.748
 71.801      52.776
 71.811      52.806
 71.821      52.838
 71.831      52.872
 71.841      52.909
 71.851      52.948
 71.861      52.992
 71.871      53.039
 71.881      53.093
 71.891      53.153
 71.901      53.223
 71.911      53.305
 71.921      53.402
 71.931      53.520
 71.941      53.666
 71.951      53.847
 71.961      54.074
 71.971      54.363
 71.981      54.728
 71.991      55.193
 72.001      55.784
 72.011      56.531
 72.021      57.472
 72.031      58.651
 72.041      60.117
 72.051      61.927
 72.062      64.141
 72.072      66.827
 72.082      70.052
 72.092      73.887
 72.102      78.404
 72.112      83.660
 72.122      89.712
 72.132      96.603
 72.142     104.358
 72.152     112.979
 72.162     122.444
 72.172     132.702
 72.182     143.670
 72.192     155.230
 72.202     167.233
 72.212     179.495
 72.222     191.814
 72.232     203.932
 72.242     215.601
 72.252     226.552
 72.262     236.511
 72.272     245.211
 72.282     252.404
 72.292     257.874
 72.302     261.447
 72.312     263.008
 72.322     262.502
 72.332     259.949
 72.342     255.431
 72.352     249.090
 72.362     241.130
 72.372     231.782
 72.382     221.305
 72.392     209.969
 72.402     198.047
 72.412     185.804
 72.422     173.489
 72.432     161.329
 72.442     149.521
 72.452     138.233
 72.462     127.600
 72.472     117.720
 72.482     108.656
 72.492     100.458
 72.502      93.127
 72.512      86.650
 72.522      80.993
 72.532      76.108
 72.542      71.934
 72.552      68.405
 72.562      65.453
 72.572      63.006
 72.582      60.997
 72.592      59.362
 72.602      58.042
 72.613      56.985
 72.623      56.144
 72.633      55.477
 72.643      54.952
 72.653      54.539
 72.663      54.213
 72.673      53.957
 72.683      53.753
 72.693      53.591
 72.703      53.460
 72.713      53.352
 72.723      53.263
 72.733      53.187
 72.743      53.123
 72.753      53.066
 72.763      53.015
 72.773      52.970
 72.783      52.929
 72.793      52.890
 72.803      52.855
 72.813      52.822
 72.823      52.791
 72.833      52.762
 72.843      52.735
 72.853      52.709
 72.863      52.684
 72.873      52.661
 72.883      52.639
 72.893      52.618
 72.903      52.598
 72.913      52.579
 72.923      52.561
 72.933      52.543
 72.943      52.527
 72.953      52.511
 72.963      52.496
 72.973      52.481
 72.983      52.467
 72.993      52.454
 73.003      52.441
 73.013      52.429
 73.023      52.417
 73.033      52.406
 73.043      52.395
 73.053      52.385
 73.063      52.375
 73.073      52.366
 73.083      52.356
 73.093      52.347
 73.103      52.339
 73.113      52.331
 73.123      52.323
 73.133      52.315
 73.143      52.308
 73.153      52.300
 73.163      52.293
 73.174      52.287
 73.184      52.280
 73.194      52.274
 73.204      52.268
 73.214      52.262
 73.224      52.257
 73.234      52.251
 73.244      52.246
 73.254      52.241
 73.264      52.236
 73.274      52.231
 73.284      52.226
 73.294      52.222
 73.304      52.217
 73.314      52.213
 73.324      52.209
 73.334      52.205
 73.344      52.201
 73.354      52.197
 73.364      52.193
 73.374      52.190
 73.384      52.186
 73.394      52.183
 73.404      52.180
 73.414      52.176
 73.424      52.173
 73.434      52.170
 73.444      52.167
 73.454      52.164
 73.464      52.162
 73.474      52.159
 73.484      52.156
 73.494      52.153
 73.504      52.151
 73.514      52.148
 73.524      52.146
 73.534      52.144
 73.544      52.141
 73.554      52.139
 73.564      52.137
 73.574      52.135
 73.584      52.133
 73.594      52.131
 73.604      52.129
 73.614      52.127
 73.624      52.125
 73.634      52.123
 73.644      52.121
 73.654      52.119
 73.664      52.117
 73.674      52.116
 73.684      52.114
 73.694      52.112
 73.704      52.111
 73.714      52.109
 73.724      52.108
 73.735      52.106
 73.745      52.105
 73.755      52.103
 73.765      52.102
 73.775      52.101
 73.785      52.099
 73.795      52.098
 73.805      52.097
 73.815      52.095
 73.825      52.094
 73.835      52.093
 73.845      52.092
 73.855      52.090
 73.865      52.089
 73.875      52.088
 73.885      52.087
 73.895      52.086
 73.905      52.085
 73.915      52.084
 73.925      52.083
 73.935      52.082
 73.945      52.081
 73.955      52.080
 73.965      52.079
 73.975      52.078
 73.985      52.077
 73.995      52.076
 74.005      52.075
 74.015      52.000
 74.025      52.000
 74.035      52.000
 74.045      52.000
 74.055      52.000
 74.065      52.000
 74.075      52.000
 74.085      52.000
 74.095      52.000
 74.105      52.000
 74.115      52.000
 74.125      52.000
 74.135      52.000
 74.145      52.000
 74.155      52.000
 74.165      52.000
 74.175      52.000
 74.185      52.000
 74.195      52.000
 74.205      52.000
 74.215      52.000
 74.225      52.000
 74.235      52.000
 74.245      52.000
 74.255      52.000
 74.265      52.000
 74.275      52.000
 74.286      52.000
 74.296      52.000
 74.306      52.000
 74.316      52.000
 74.326      52.000
 74.336      52.000
 74.346      52.000
 74.356      52.000
 74.366      52.000
 74.376      52.000
 74.386      52.000
 74.396      52.000
 74.406      52.000
 74.416      52.000
 74.426      52.000
 74.436      52.000
 74.446      52.000
 74.456      52.000
 74.466      52.000
 74.476      52.000
 74.486      52.000
 74.496      52.000
 74.506      52.000
 74.516      52.000
 74.526      52.000
 74.536      52.000
 74.546      52.000
 74.556      52.000
 74.566      52.000
 74.576      52.000
 74.586      52.000
 74.596      52.000
 74.606      52.000
 74.616      52.000
 74.626      52.000
 74.636      52.000
 74.646      52.000
 74.656      52.000
 74.666      52.000
 74.676      52.000
 74.686      52.000
 74.696      52.000
 74.706      52.000
 74.716      52.000
 74.726      52.000
 74.736      52.000
 74.746      52.000
 74.756      52.000
 74.766      52.000
 74.776      52.000
 74.786      52.000
 74.796      52.000
 74.806      52.000
 74.816      52.000
 74.826      52.000
 74.836      52.000
 74.847      52.000
 74.857      52.000
 74.867      52.000
 74.877      52.000
 74.887      52.000
 74.897      52.000
 74.907      52.000
 74.917      52.000
 74.927      52.000
 74.937      52.000
 74.947      52.000
 74.957      52.000
 74.967      52.000
 74.977      52.000
 74.987      52.000
 74.997      52.000
 75.007      52.000
 75.017      52.000
 75.027      52.000
 75.037      52.000
 75.047      52.000
 75.057      52.000
 75.067      52.000
 75.077      52.000
 75.087      52.000
 75.097      52.000
 75.107      52.000
 75.117      52.000
 75.127      52.000
 75.137      52.000
 75.147      52.000
 75.157      52.000
 75.167      52.000
 75.177      52.000
 75.187      52.000
 75.197      52.000
 75.207      52.000
 75.217      52.000
 75.227      52.000
 75.237      52.000
 75.247      52.000
 75.257      52.000
 75.267      52.000
 75.277      52.000
 75.287      52.000
 75.297      52.000
 75.307      52.000
 75.317      52.000
 75.327      52.000
 75.337      52.000
 75.347      52.000
 75.357      52.000
 75.367      52.000
 75.377      52.000
 75.387      52.000
 75.398      52.000
 75.408      52.000
 75.418      52.000
 75.428      52.000
 75.438      52.000
 75.448      52.000
 75.458      52.000
 75.468      52.000
 75.478      52.000
 75.488      52.000
 75.498      52.000
 75.508      52.000
 75.518      52.000
 75.528      52.000
 75.538      52.000
 75.548      52.000
 75.558      52.000
 75.568      52.000
 75.578      52.000
 75.588      52.000
 75.598      52.000
 75.608      52.000
 75.618      52.000
 75.628      52.000
 75.638      52.000
 75.648      52.000
 75.658      52.000
 75.668      52.000
 75.678      52.000
 75.688      52.000
 75.698      52.000
 75.708      52.000
 75.718      52.000
 75.728      52.000
 75.738      52.000
 75.748      52.000
 75.758      52.000
 75.768      52.000
 75.778      52.000
 75.788      52.000
 75.798      52.000
 75.808      52.000
 75.818      52.000
 75.828      52.000
 75.838      52.000
 75.848      52.000
 75.858      52.000
 75.868      52.000
 75.878      52.000
 75.888      52.000
 75.898      52.000
 75.908      52.000
 75.918      52.000
 75.928      52.000
 75.938      52.000
 75.948      52.000
 75.959      52.000
 75.969      52.000
 75.979      52.000
 75.989      52.000
 75.999      52.000
 76.009      52.000
 76.019      52.000
 76.029      52.000
 76.039      52.000
 76.049      52.000
 76.059      52.000
 76.069      52.000
 76.079      52.000
 76.089      52.000
 76.099      52.000
 76.109      52.000
 76.119      52.000
 76.129      52.000
 76.139      52.000
 76.149      52.000
 76.159      52.000
 76.169      52.000
 76.179      52.000
 76.189      52.000
 76.199      52.331
 76.209      52.334
 76.219      52.338
 76.229      52.342
 76.239      52.346
 76.249      52.349
 76.259      52.353
 76.269      52.357
 76.279      52.361
 76.289      52.365
 76.299      52.369
 76.309      52.374
 76.319      52.378
 76.329      52.382
 76.339      52.387
 76.349      52.391
 76.359      52.396
 76.369      52.401
 76.379      52.405
 76.389      52.410
 76.399      52.415
 76.409      52.420
 76.419      52.425
 76.429      52.430
 76.439      52.436
 76.449      52.441
 76.459      52.447
 76.469      52.452
 76.479      52.458
 76.489      52.464
 76.499      52.470
 76.509      52.476
 76.520      52.482
 76.530      52.488
 76.540      52.495
 76.550      52.501
 76.560      52.508
 76.570      52.515
 76.580      52.522
 76.590      52.529
 76.600      52.536
 76.610      52.543
 76.620      52.551
 76.630      52.558
 76.640      52.566
 76.650      52.574
 76.660      52.583
 76.670      52.591
 76.680      52.599
 76.690      52.608
 76.700      52.617
 76.710      52.626
 76.720      52.635
 76.730      52.645
 76.740      52.655
 76.750      52.665
 76.760      52.675
 76.770      52.685
 76.780      52.696
 76.790      52.707
 76.800      52.718
 76.810      52.729
 76.820      52.741
 76.830      52.753
 76.840      52.765
 76.850      52.778
 76.860      52.791
 76.870      52.804
 76.880      52.818
 76.890      52.832
 76.900      52.846
 76.910      52.861
 76.920      52.876
 76.930      52.891
 76.940      52.907
 76.950      52.923
 76.960      52.940
 76.970      52.957
 76.980      52.974
 76.990      52.992
 77.000      53.011
 77.010      53.030
 77.020      53.050
 77.030      53.070
 77.040      53.091
 77.050      53.112
 77.060      53.134
 77.071      53.157
 77.081      53.180
 77.091      53.204
 77.101      53.229
 77.111      53.255
 77.121      53.281
 77.131      53.308
 77.141      53.337
 77.151      53.366
 77.161      53.396
 77.171      53.427
 77.181      53.459
 77.191      53.492
 77.201      53.526
 77.211      53.561
 77.221      53.598
 77.231      53.636
 77.241      53.675
 77.251      53.716
 77.261      53.758
 77.271      53.802
 77.281      53.847
 77.291      53.894
 77.301      53.943
 77.311      53.994
 77.321      54.047
 77.331      54.102
 77.341      54.159
 77.351      54.218
 77.361      54.280
 77.371      54.344
 77.381      54.412
 77.391      54.482
 77.401      54.555
 77.411      54.632
 77.421      54.711
 77.431      54.795
 77.441      54.882
 77.451      54.974
 77.461      55.070
 77.471      55.171
 77.481      55.277
 77.491      55.388
 77.501      55.506
 77.511      55.631
 77.521      55.763
 77.531      55.904
 77.541      56.054
 77.551      56.216
 77.561      56.392
 77.571      56.585
 77.581      56.798
 77.591      57.037
 77.601      57.308
 77.611      57.620
 77.621      57.985
 77.632      58.416
 77.642      58.934
 77.652      59.562
 77.662      60.331
 77.672      61.279
 77.682      62.454
 77.692      63.914
 77.702      65.729
 77.712      67.985
 77.722      70.781
 77.732      74.237
 77.742      78.487
 77.752      83.686
 77.762      90.008
 77.772      97.644
 77.782     106.810
 77.792     117.712
 77.802     130.585
 77.812     145.663
 77.822     163.171
 77.832     183.323
 77.842     206.312
 77.852     232.293
 77.862     261.377
 77.872     293.616
 77.882     328.994
 77.892     367.413
 77.902     408.686
 77.912     452.565
 77.922     498.600
 77.932     546.336
 77.942     595.192
 77.952     644.490
 77.962     693.475
 77.972     741.322
 77.982     787.158
 77.992     830.083
 78.002     869.197
 78.012     903.623
 78.022     932.548
 78.032     955.264
 78.042     971.164
 78.052     979.809
 78.062     980.977
 78.072     974.634
 78.082     960.955
 78.092     940.313
 78.102     913.250
 78.112     880.449
 78.122     842.701
 78.132     800.864
 78.142     755.836
 78.152     708.519
 78.162     659.760
 78.172     610.474
 78.183     561.405
 78.193     513.255
 78.203     466.636
 78.213     422.066
 78.223     379.959
 78.233     340.628
 78.243     304.292
 78.253     271.072
 78.263     241.010
 78.273     214.075
 78.283     190.171
 78.293     169.142
 78.303     150.836
 78.313     135.029
 78.323     121.498
 78.333     110.010
 78.343     100.334
 78.353      92.248
 78.363      85.539
 78.373      80.011
 78.383      75.484
 78.393      71.797
 78.403      68.810
 78.413      66.396
 78.423      64.454
 78.433      62.893
 78.443      61.637
 78.453      60.624
 78.463      59.805
 78.473      59.137
 78.483      58.588
 78.493      58.132
 78.503      57.749
 78.513      57.422
 78.523      57.140
 78.533      56.892
 78.543      56.672
 78.553      56.473
 78.563      56.293
 78.573      56.127
 78.583      55.973
 78.593      55.830
 78.603      55.696
 78.613      55.570
 78.623      55.450
 78.633      55.337
 78.643      55.230
 78.653      55.128
 78.663      55.031
 78.673      54.938
 78.683      54.850
 78.693      54.766
 78.703      54.685
 78.713      54.608
 78.723      54.534
 78.733      54.464
 78.744      54.396
 78.754      54.331
 78.764      54.269
 78.774      54.210
 78.784      54.152
 78.794      54.097
 78.804      54.044
 78.814      53.994
 78.824      53.945
 78.834      53.898
 78.844      53.853
 78.854      53.809
 78.864      53.767
 78.874      53.727
 78.884      53.688
 78.894      53.650
 78.904      53.614
 78.914      53.579
 78.924      53.545
 78.934      53.512
 78.944      53.481
 78.954      53.451
 78.964      53.421
 78.974      53.393
 78.984      53.365
 78.994      53.339
 79.004      53.313
 79.014      53.289
 79.024      53.265
 79.034      53.241
 79.044      53.219
 79.054      53.197
 79.064      53.176
 79.074      53.156
 79.084      53.136
 79.094      53.117
 79.104      53.099
 79.114      53.081
 79.124      53.064
 79.134      53.047
 79.144      53.031
 79.154      53.016
 79.164      53.001
 79.174      52.986
 79.184      52.972
 79.194      52.958
 79.204      52.945
 79.214      52.933
 79.224      52.921
 79.234      52.909
 79.244      52.898
 79.254      52.887
 79.264      52.877
 79.274      52.867
 79.284      52.857
 79.295      52.848
 79.305      52.839
 79.315      52.831
 79.325      52.823
 79.335      52.816
 79.345      52.809
 79.355      52.802
 79.365      52.796
 79.375      52.791
 79.385      52.785
 79.395      52.781
 79.405      52.777
 79.415      52.773
 79.425      52.770
 79.435      52.768
 79.445      52.766
 79.455      52.766
 79.465      52.767
 79.475      52.769
 79.485      52.772
 79.495      52.778
 79.505      52.787
 79.515      52.799
 79.525      52.814
 79.535      52.836
 79.545      52.863
 79.555      52.899
 79.565      52.945
 79.575      53.003
 79.585      53.077
 79.595      53.170
 79.605      53.285
 79.615      53.427
 79.625      53.601
 79.635      53.814
 79.645      54.071
 79.655      54.379
 79.665      54.746
 79.675      55.180
 79.685      55.687
 79.695      56.277
 79.705      56.955
 79.715      57.730
 79.725      58.607
 79.735      59.590
 79.745      60.683
 79.755      61.886
 79.765      63.197
 79.775      64.612
 79.785      66.124
 79.795      67.722
 79.805      69.393
 79.815      71.117
 79.825      72.875
 79.835      74.644
 79.845      76.397
 79.856      78.107
 79.866      79.743
 79.876      81.276
 79.886      82.675
 79.896      83.910
 79.906      84.954
 79.916      85.783
 79.926      86.047
 79.936      86.392
 79.946      86.477
 79.956      86.299
 79.966      85.864
 79.976      85.183
 79.986      84.273
 79.996      83.155
 80.006      81.855
 80.016      80.401
 80.026      78.825
 80.036      77.155
 80.046      75.423
 80.056      73.655
 80.066      71.883
 80.076      70.130
 80.086      68.419
 80.096      66.769
 80.106      65.195
 80.116      63.712
 80.126      62.328
 80.136      61.050
 80.146      59.881
 80.156      58.822
 80.166      57.872
 80.176      57.027
 80.186      56.281
 80.196      55.630
 80.206      55.065
 80.216      54.579
 80.226      54.165
 80.236      53.814
 80.246      53.519
 80.256      53.273
 80.266      53.068
 80.276      52.900
 80.286      52.761
 80.296      52.648
 80.306      52.557
 80.316      52.482
 80.326      52.422
 80.336      52.373
 80.346      52.333
 80.356      52.301
 80.366      52.275
 80.376      52.253
 80.386      52.235
 80.396      52.220
 80.407      52.207
 80.417      52.196
 80.427      52.186
 80.437      52.178
 80.447      52.170
 80.457      52.163
 80.467      52.157
 80.477      52.151
 80.487      52.146
 80.497      52.140
 80.507      52.136
 80.517      52.131
 80.527      52.127
 80.537      52.123
 80.547      52.119
 80.557      52.115
 80.567      52.112
 80.577      52.108
 80.587      52.105
 80.597      52.102
 80.607      52.099
 80.617      52.096
 80.627      52.094
 80.637      52.091
 80.647      52.089
 80.657      52.086
 80.667      52.084
 80.677      52.082
 80.687      52.080
 80.697      52.078
 80.707      52.076
 80.717      52.074
 80.727      52.072
 80.737      52.070
 80.747      52.068
 80.757      52.067
 80.767      52.065
 80.777      52.064
 80.787      52.062
 80.797      52.061
 80.807      52.059
 80.817      52.058
 80.827      52.057
 80.837      52.056
 80.847      52.054
 80.857      52.053
 80.867      52.052
 80.877      52.051
 80.887      52.050
 80.897      52.049
 80.907      52.048
 80.917      52.047
 80.927      52.046
 80.937      52.045
 80.947      52.044
 80.957      52.043
 80.968      52.043
 80.978      52.042
 80.988      52.041
 80.998      52.040
 81.008      52.039
 81.018      52.039
 81.028      52.038
 81.038      52.037
 81.048      52.037
 81.058      52.036
 81.068      52.035
 81.078      52.035
 81.088      52.034
 81.098      52.034
 81.108      52.033
 81.118      52.033
 81.128      52.032
 81.138      52.031
 81.148      52.031
 81.158      52.030
 81.168      52.030
 81.178      52.029
 81.188      52.029
 81.198      52.029
 81.208      52.028
 81.218      52.028
 81.228      52.027
 81.238      52.027
 81.248      52.026
 81.258      52.026
 81.268      52.026
 81.278      52.025
 81.288      52.025
 81.298      52.025
 81.308      52.024
 81.318      52.024
 81.328      52.023
 81.338      52.023
 81.348      52.023
 81.358      52.023
 81.368      52.022
 81.378      52.022
 81.388      52.022
 81.398      52.021
 81.408      52.021
 81.418      52.021
 81.428      52.020
 81.438      52.020
 81.448      52.020
 81.458      52.020
 81.468      52.019
 81.478      52.019
 81.488      52.019
 81.498      52.019
 81.508      52.018
 81.519      52.018
 81.529      52.018
 81.539      52.018
 81.549      52.018
 81.559      52.017
 81.569      52.017
 81.579      52.017
 81.589      52.017
 81.599      52.016
 81.609      52.016
 81.619      52.016
 81.629      52.016
 81.639      52.016
 81.649      52.016
 81.659      52.015
 81.669      52.015
 81.679      52.015
 81.689      52.015
 81.699      52.015
 81.709      52.014
 81.719      52.014
 81.729      52.014
 81.739      52.014
 81.749      52.014
 81.759      52.014
 81.769      52.014
 81.779      52.013
 81.789      52.013
 81.799      52.013
 81.809      52.013
 81.819      52.013
 81.829      52.013
 81.839      52.013
 81.849      52.012
 81.859      52.012
 81.869      52.000
 81.879      52.000
 81.889      52.000
 81.899      52.000
 81.909      52.000
 81.919      52.000
 81.929      52.000
 81.939      52.000
 81.949      52.000
 81.959      52.000
 81.969      52.000
 81.979      52.000
 81.989      52.000
 81.999      52.000
 82.009      52.000
 82.019      52.000
 82.029      52.000
 82.039      52.000
 82.049      52.000
 82.059      52.000
 82.069      52.000
 82.080      52.000
 82.090      52.000
 82.100      52.000
 82.110      52.000
 82.120      52.000
 82.130      52.000
 82.140      52.000
 82.150      52.000
 82.160      52.000
 82.170      52.000
 82.180      52.000
 82.190      52.000
 82.200      52.000
 82.210      52.000
 82.220      52.000
 82.230      52.000
 82.240      52.000
 82.250      52.000
 82.260      52.000
 82.270      52.000
 82.280      52.000
 82.290      52.000
 82.300      52.000
 82.310      52.000
 82.320      52.000
 82.330      52.000
 82.340      52.000
 82.350      52.020
 82.360      52.020
 82.370      52.021
 82.380      52.021
 82.390      52.021
 82.400      52.021
 82.410      52.022
 82.420      52.022
 82.430      52.022
 82.440      52.022
 82.450      52.022
 82.460      52.023
 82.470      52.023
 82.480      52.023
 82.490      52.023
 82.500      52.024
 82.510      52.024
 82.520      52.024
 82.530      52.024
 82.540      52.025
 82.550      52.025
 82.560      52.025
 82.570      52.025
 82.580      52.026
 82.590      52.026
 82.600      52.026
 82.610      52.027
 82.620      52.027
 82.631      52.027
 82.641      52.027
 82.651      52.028
 82.661      52.028
 82.671      52.028
 82.681      52.029
 82.691      52.029
 82.701      52.029
 82.711      52.030
 82.721      52.030
 82.731      52.030
 82.741      52.031
 82.751      52.031
 82.761      52.032
 82.771      52.032
 82.781      52.032
 82.791      52.033
 82.801      52.033
 82.811      52.034
 82.821      52.034
 82.831      52.034
 82.841      52.035
 82.851      52.035
 82.861      52.036
 82.871      52.036
 82.881      52.037
 82.891      52.037
 82.901      52.038
 82.911      52.038
 82.921      52.039
 82.931      52.039
 82.941      52.040
 82.951      52.040
 82.961      52.041
 82.971      52.041
 82.981      52.042
 82.991      52.043
 83.001      52.043
 83.011      52.044
 83.021      52.044
 83.031      52.045
 83.041      52.046
 83.051      52.046
 83.061      52.047
 83.071      52.048
 83.081      52.048
 83.091      52.049
 83.101      52.050
 83.111      52.051
 83.121      52.051
 83.131      52.052
 83.141      52.053
 83.151      52.054
 83.161      52.055
 83.171      52.056
 83.181      52.057
 83.192      52.057
 83.202      52.058
 83.212      52.059
 83.222      52.060
 83.232      52.061
 83.242      52.062
 83.252      52.064
 83.262      52.065
 83.272      52.066
 83.282      52.067
 83.292      52.068
 83.302      52.069
 83.312      52.071
 83.322      52.072
 83.332      52.073
 83.342      52.075
 83.352      52.076
 83.362      52.077
 83.372      52.079
 83.382      52.080
 83.392      52.082
 83.402      52.083
 83.412      52.085
 83.422      52.087
 83.432      52.089
 83.442      52.090
 83.452      52.092
 83.462      52.094
 83.472      52.096
 83.482      52.098
 83.492      52.100
 83.502      52.102
 83.512      52.105
 83.522      52.107
 83.532      52.109
 83.542      52.112
 83.552      52.114
 83.562      52.117
 83.572      52.120
 83.582      52.123
 83.592      52.126
 83.602      52.129
 83.612      52.132
 83.622      52.135
 83.632      52.138
 83.642      52.142
 83.652      52.146
 83.662      52.149
 83.672      52.153
 83.682      52.157
 83.692      52.162
 83.702      52.166
 83.712      52.171
 83.722      52.176
 83.732      52.181
 83.743      52.186
 83.753      52.191
 83.763      52.197
 83.773      52.203
 83.783      52.209
 83.793      52.216
 83.803      52.223
 83.813      52.230
 83.823      52.238
 83.833      52.246
 83.843      52.255
 83.853      52.264
 83.863      52.275
 83.873      52.286
 83.883      52.298
 83.893      52.312
 83.903      52.327
 83.913      52.345
 83.923      52.365
 83.933      52.389
 83.943      52.417
 83.953      52.450
 83.963      52.490
 83.973      52.537
 83.983      52.595
 83.993      52.665
 84.003      52.751
 84.013      52.855
 84.023      52.981
 84.033      53.135
 84.043      53.320
 84.053      53.544
 84.063      53.813
 84.073      54.134
 84.083      54.515
 84.093      54.966
 84.103      55.497
 84.113      56.115
 84.123      56.833
 84.133      57.660
 84.143      58.607
 84.153      59.682
 84.163      60.896
 84.173      62.254
 84.183      63.764
 84.193      65.428
 84.203      67.248
 84.213      69.221
 84.223      71.346
 84.233      73.608
 84.243      75.998
 84.253      78.499
 84.263      81.090
 84.273      83.746
 84.283      86.439
 84.293      89.137
 84.304      91.805
 84.314      94.405
 84.324      96.899
 84.334      99.247
 84.344     101.408
 84.354     103.344
 84.364     105.017
 84.374     106.394
 84.384     107.446
 84.394     108.152
 84.404     108.495
 84.414     108.468
 84.424     108.071
 84.434     107.313
 84.444     106.211
 84.454     104.789
 84.464     103.075
 84.474     101.105
 84.484      98.912
 84.494      96.541
 84.504      94.029
 84.514      91.416
 84.524      88.741
 84.534      86.042
 84.544      83.353
 84.554      80.704
 84.564      78.125
 84.574      75.640
 84.584      73.267
 84.594      71.025
 84.604      68.922
 84.614      66.970
 84.624      65.173
 84.634      63.532
 84.644      62.045
 84.654      60.709
 84.664      59.516
 84.674      58.460
 84.684      57.531
 84.694      56.721
 84.704      56.018
 84.714      55.413
 84.724      54.896
 84.734      54.455
 84.744      54.083
 84.754      53.770
 84.764      53.509
 84.774      53.291
 84.784      53.110
 84.794      52.961
 84.804      52.838
 84.814      52.737
 84.824      52.654
 84.834      52.586
 84.844      52.530
 84.854      52.483
 84.865      52.445
 84.875      52.412
 84.885      52.385
 84.895      52.362
 84.905      52.342
 84.915      52.325
 84.925      52.310
 84.935      52.296
 84.945      52.284
 84.955      52.273
 84.965      52.263
 84.975      52.254
 84.985      52.245
 84.995      52.237
 85.005      52.229
 85.015      52.222
 85.025      52.215
 85.035      52.208
 85.045      52.202
 85.055      52.196
 85.065      52.190
 85.075      52.185
 85.085      52.180
 85.095      52.175
 85.105      52.170
 85.115      52.165
 85.125      52.161
 85.135      52.157
 85.145      52.153
 85.155      52.149
 85.165      52.145
 85.175      52.141
 85.185      52.138
 85.195      52.135
 85.205      52.131
 85.215      52.128
 85.225      52.125
 85.235      52.122
 85.245      52.119
 85.255      52.117
 85.265      52.114
 85.275      52.112
 85.285      52.109
 85.295      52.107
 85.305      52.104
 85.315      52.102
 85.325      52.100
 85.335      52.098
 85.345      52.096
 85.355      52.094
 85.365      52.092
 85.375      52.090
 85.385      52.088
 85.395      52.087
 85.405      52.085
 85.416      52.083
 85.426      52.082
 85.436      52.080
 85.446      52.079
 85.456      52.077
 85.466      52.076
 85.476      52.074
 85.486      52.073
 85.496      52.072
 85.506      52.070
 85.516      52.069
 85.526      52.068
 85.536      52.067
 85.546      52.066
 85.556      52.064
 85.566      52.063
 85.576      52.062
 85.586      52.061
 85.596      52.060
 85.606      52.059
 85.616      52.058
 85.626      52.057
 85.636      52.056
 85.646      52.056
 85.656      52.055
 85.666      52.054
 85.676      52.053
 85.686      52.052
 85.696      52.051
 85.706      52.051
 85.716      52.050
 85.726      52.049
 85.736      52.048
 85.746      52.048
 85.756      52.047
 85.766      52.046
 85.776      52.046
 85.786      52.045
 85.796      52.044
 85.806      52.044
 85.816      52.043
 85.826      52.042
 85.836      52.042
 85.846      52.041
 85.856      52.041
 85.866      52.040
 85.876      52.040
 85.886      52.039
 85.896      52.039
 85.906      52.038
 85.916      52.038
 85.926      52.037
 85.936      52.037
 85.946      52.036
 85.956      52.036
 85.966      52.035
 85.977      52.035
 85.987      52.034
 85.997      52.034
 86.007      52.033
 86.017      52.033
 86.027      52.033
 86.037      52.032
 86.047      52.032
 86.057      52.032
 86.067      52.031
 86.077      52.031
 86.087      52.030
 86.097      52.030
 86.107      52.030
 86.117      52.029
 86.127      52.029
 86.137      52.029
 86.147      52.028
 86.157      52.028
 86.167      52.028
 86.177      52.027
 86.187      52.027
 86.197      52.027
 86.207      52.026
 86.217      52.026
 86.227      52.026
 86.237      52.026
 86.247      52.025
 86.257      52.025
 86.267      52.025
 86.277      52.025
 86.287      52.024
 86.297      52.024
 86.307      52.024
 86.317      52.024
 86.327      52.023
 86.337      52.023
 86.347      52.023
 86.357      52.023
 86.367      52.022
 86.377      52.022
 86.387      52.022
 86.397      52.022
 86.407      52.021
 86.417      52.021
 86.427      52.021
 86.437      52.021
 86.447      52.021
 86.457      52.020
 86.467      52.020
 86.477      52.000
 86.487      52.000
 86.497      52.000
 86.507      52.000
 86.517      52.000
 86.528      52.000
 86.538      52.000
 86.548      52.000
 86.558      52.000
 86.568      52.000
 86.578      52.000
 86.588      52.000
 86.598      52.000
 86.608      52.000
 86.618      52.000
 86.628      52.000
 86.638      52.000
 86.648      52.000
 86.658      52.000
 86.668      52.000
 86.678      52.000
 86.688      52.000
 86.698      52.000
 86.708      52.000
 86.718      52.000
 86.728      52.000
 86.738      52.000
 86.748      52.000
 86.758      52.000
 86.768      52.000
 86.778      52.000
 86.788      52.000
 86.798      52.000
 86.808      52.000
 86.818      52.000
 86.828      52.000
 86.838      52.000
 86.848      52.000
 86.858      52.000
 86.868      52.000
 86.878      52.000
 86.888      52.000
 86.898      52.000
 86.908      52.000
 86.918      52.000
 86.928      52.000
 86.938      52.000
 86.948      52.000
 86.958      52.000
 86.968      52.000
 86.978      52.000
 86.988      52.000
 86.998      52.000
 87.008      52.000
 87.018      52.000
 87.028      52.000
 87.038      52.000
 87.048      52.000
 87.058      52.000
 87.068      52.000
 87.078      52.000
 87.089      52.000
 87.099      52.000
 87.109      52.000
 87.119      52.000
 87.129      52.000
 87.139      52.000
 87.149      52.000
 87.159      52.000
 87.169      52.000
 87.179      52.000
 87.189      52.000
 87.199      52.000
 87.209      52.000
 87.219      52.000
 87.229      52.000
 87.239      52.000
 87.249      52.000
 87.259      52.000
 87.269      52.000
 87.279      52.000
 87.289      52.000
 87.299      52.000
 87.309      52.000
 87.319      52.000
 87.329      52.000
 87.339      52.000
 87.349      52.000
 87.359      52.000
 87.369      52.000
 87.379      52.000
 87.389      52.000
 87.399      52.000
 87.409      52.000
 87.419      52.000
 87.429      52.000
 87.439      52.000
 87.449      52.000
 87.459      52.000
 87.469      52.000
 87.479      52.000
 87.489      52.000
 87.499      52.000
 87.509      52.000
 87.519      52.000
 87.529      52.000
 87.539      52.000
 87.549      52.000
 87.559      52.000
 87.569      52.000
 87.579      52.000
 87.589      52.000
 87.599      52.000
 87.609      52.000
 87.619      52.000
 87.629      52.000
 87.640      52.000
 87.650      52.000
 87.660      52.000
 87.670      52.000
 87.680      52.000
 87.690      52.000
 87.700      52.000
 87.710      52.016
 87.720      52.016
 87.730      52.016
 87.740      52.017
 87.750      52.017
 87.760      52.017
 87.770      52.017
 87.780      52.017
 87.790      52.017
 87.800      52.018
 87.810      52.018
 87.820      52.018
 87.830      52.018
 87.840      52.018
 87.850      52.018
 87.860      52.019
 87.870      52.019
 87.880      52.019
 87.890      52.019
 87.900      52.019
 87.910      52.019
 87.920      52.020
 87.930      52.020
 87.940      52.020
 87.950      52.020
 87.960      52.020
 87.970      52.021
 87.980      52.021
 87.990      52.021
 88.000      52.021
 88.010      52.022
 88.020      52.022
 88.030      52.022
 88.040      52.022
 88.050      52.022
 88.060      52.023
 88.070      52.023
 88.080      52.023
 88.090      52.023
 88.100      52.024
 88.110      52.024
 88.120      52.024
 88.130      52.024
 88.140      52.025
 88.150      52.025
 88.160      52.025
 88.170      52.026
 88.180      52.026
 88.190      52.026
 88.201      52.026
 88.211      52.027
 88.221      52.027
 88.231      52.027
 88.241      52.028
 88.251      52.028
 88.261      52.028
 88.271      52.029
 88.281      52.029
 88.291      52.029
 88.301      52.030
 88.311      52.030
 88.321      52.030
 88.331      52.031
 88.341      52.031
 88.351      52.031
 88.361      52.032
 88.371      52.032
 88.381      52.033
 88.391      52.033
 88.401      52.033
 88.411      52.034
 88.421      52.034
 88.431      52.035
 88.441      52.035
 88.451      52.036
 88.461      52.036
 88.471      52.037
 88.481      52.037
 88.491      52.038
 88.501      52.038
 88.511      52.039
 88.521      52.039
 88.531      52.040
 88.541      52.040
 88.551      52.041
 88.561      52.041
 88.571      52.042
 88.581      52.043
 88.591      52.043
 88.601      52.044
 88.611      52.044
 88.621      52.045
 88.631      52.046
 88.641      52.047
 88.651      52.047
 88.661      52.048
 88.671      52.049
 88.681      52.049
 88.691      52.050
 88.701      52.051
 88.711      52.052
 88.721      52.053
 88.731      52.053
 88.741      52.054
 88.751      52.055
 88.762      52.056
 88.772      52.057
 88.782      52.058
 88.792      52.059
 88.802      52.060
 88.812      52.061
 88.822      52.062
 88.832      52.063
 88.842      52.064
 88.852      52.065
 88.862      52.066
 88.872      52.068
 88.882      52.069
 88.892      52.070
 88.902      52.071
 88.912      52.073
 88.922      52.074
 88.932      52.076
 88.942      52.077
 88.952      52.078
 88.962      52.080
 88.972      52.082
 88.982      52.083
 88.992      52.085
 89.002      52.087
 89.012      52.088
 89.022      52.090
 89.032      52.092
 89.042      52.094
 89.052      52.096
 89.062      52.098
 89.072      52.100
 89.082      52.102
 89.092      52.105
 89.102      52.107
 89.112      52.109
 89.122      52.112
 89.132      52.115
 89.142      52.117
 89.152      52.120
 89.162      52.123
 89.172      52.126
 89.182      52.129
 89.192      52.132
 89.202      52.136
 89.212      52.139
 89.222      52.143
 89.232      52.146
 89.242      52.150
 89.252      52.154
 89.262      52.159
 89.272      52.163
 89.282      52.168
 89.292      52.172
 89.302      52.177
 89.313      52.183
 89.323      52.188
 89.333      52.194
 89.343      52.200
 89.353      52.207
 89.363      52.214
 89.373      52.222
 89.383      52.230
 89.393      52.239
 89.403      52.249
 89.413      52.260
 89.423      52.273
 89.433      52.287
 89.443      52.304
 89.453      52.323
 89.463      52.345
 89.473      52.371
 89.483      52.401
 89.493      52.438
 89.503      52.481
 89.513      52.533
 89.523      52.594
 89.533      52.668
 89.543      52.757
 89.553      52.862
 89.563      52.988
 89.573      53.137
 89.583      53.314
 89.593      53.522
 89.603      53.767
 89.613      54.054
 89.623      54.387
 89.633      54.773
 89.643      55.218
 89.653      55.727
 89.663      56.309
 89.673      56.967
 89.683      57.709
 89.693      58.539
 89.703      59.464
 89.713      60.486
 89.723      61.610
 89.733      62.837
 89.743      64.167
 89.753      65.600
 89.763      67.133
 89.773      68.760
 89.783      70.476
 89.793      72.269
 89.803      74.128
 89.813      76.041
 89.823      77.990
 89.833      79.959
 89.843      81.926
 89.853      83.872
 89.863      85.772
 89.874      87.603
 89.884      89.341
 89.894      90.962
 89.904      92.442
 89.914      93.757
 89.924      94.887
 89.934      95.811
 89.944      96.514
 89.954      96.984
 89.964      97.211
 89.974      97.192
 89.984      96.927
 89.994      96.420
 90.004      95.681
