2theta /stopnie       natê¿enie/jednostki umowne
 10.000       0.000
 10.010       0.000
 10.020       0.000
 10.030       0.000
 10.040       0.000
 10.050       0.000
 10.060       0.000
 10.070       0.000
 10.080       0.000
 10.090       0.000
 10.100       0.000
 10.110       0.000
 10.120       0.000
 10.130       0.000
 10.140       0.000
 10.150       0.000
 10.160       0.000
 10.170       0.000
 10.180       0.000
 10.190       0.000
 10.200       0.000
 10.210       0.000
 10.220       0.000
 10.230       0.000
 10.240       0.000
 10.250       0.000
 10.260       0.000
 10.270       0.000
 10.281       0.000
 10.291       0.000
 10.301       0.000
 10.311       0.000
 10.321       0.000
 10.331       0.000
 10.341       0.000
 10.351       0.000
 10.361       0.000
 10.371       0.000
 10.381       0.000
 10.391       0.000
 10.401       0.000
 10.411       0.000
 10.421       0.000
 10.431       0.000
 10.441       0.000
 10.451       0.000
 10.461       0.000
 10.471       0.000
 10.481       0.000
 10.491       0.000
 10.501       0.000
 10.511       0.000
 10.521       0.000
 10.531       0.000
 10.541       0.000
 10.551       0.000
 10.561       0.000
 10.571       0.000
 10.581       0.000
 10.591       0.000
 10.601       0.000
 10.611       0.000
 10.621       0.000
 10.631       0.000
 10.641       0.000
 10.651       0.000
 10.661       0.000
 10.671       0.000
 10.681       0.000
 10.691       0.000
 10.701       0.000
 10.711       0.000
 10.721       0.000
 10.731       0.000
 10.741       0.000
 10.751       0.000
 10.761       0.000
 10.771       0.000
 10.781       0.000
 10.791       0.000
 10.801       0.000
 10.811       0.000
 10.821       0.000
 10.831       0.000
 10.842       0.000
 10.852       0.000
 10.862       0.000
 10.872       0.000
 10.882       0.000
 10.892       0.000
 10.902       0.000
 10.912       0.000
 10.922       0.000
 10.932       0.000
 10.942       0.000
 10.952       0.000
 10.962       0.000
 10.972       0.000
 10.982       0.000
 10.992       0.000
 11.002       0.000
 11.012       0.000
 11.022       0.000
 11.032       0.000
 11.042       0.000
 11.052       0.000
 11.062       0.000
 11.072       0.000
 11.082       0.000
 11.092       0.000
 11.102       0.000
 11.112       0.000
 11.122       0.000
 11.132       0.000
 11.142       0.000
 11.152       0.000
 11.162       0.000
 11.172       0.000
 11.182       0.000
 11.192       0.000
 11.202       0.000
 11.212       0.000
 11.222       0.000
 11.232       0.000
 11.242       0.000
 11.252       0.000
 11.262       0.000
 11.272       0.000
 11.282       0.000
 11.292       0.000
 11.302       0.000
 11.312       0.000
 11.322       0.000
 11.332       0.000
 11.342       0.000
 11.352       0.000
 11.362       0.000
 11.372       0.000
 11.382       0.000
 11.393       0.000
 11.403       0.000
 11.413       0.000
 11.423       0.000
 11.433       0.000
 11.443       0.000
 11.453       0.000
 11.463       0.000
 11.473       0.000
 11.483       0.000
 11.493       0.000
 11.503       0.000
 11.513       0.000
 11.523       0.000
 11.533       0.000
 11.543       0.000
 11.553       0.000
 11.563       0.000
 11.573       0.000
 11.583       0.000
 11.593       0.000
 11.603       0.000
 11.613       0.000
 11.623       0.000
 11.633       0.000
 11.643       0.000
 11.653       0.000
 11.663       0.000
 11.673       0.000
 11.683       0.000
 11.693       0.000
 11.703       0.000
 11.713       0.000
 11.723       0.000
 11.733       0.000
 11.743       0.000
 11.753       0.000
 11.763       0.000
 11.773       0.000
 11.783       0.000
 11.793       0.000
 11.803       0.000
 11.813       0.000
 11.823       0.000
 11.833       0.000
 11.843       0.000
 11.853       0.000
 11.863       0.000
 11.873       0.000
 11.883       0.000
 11.893       0.000
 11.903       0.000
 11.913       0.000
 11.923       0.000
 11.933       0.000
 11.943       0.000
 11.954       0.000
 11.964       0.000
 11.974       0.000
 11.984       0.000
 11.994       0.000
 12.004       0.000
 12.014       0.000
 12.024       0.000
 12.034       0.000
 12.044       0.000
 12.054       0.000
 12.064       0.000
 12.074       0.000
 12.084       0.000
 12.094       0.000
 12.104       0.000
 12.114       0.000
 12.124       0.000
 12.134       0.000
 12.144       0.000
 12.154       0.000
 12.164       0.000
 12.174       0.000
 12.184       0.000
 12.194       0.000
 12.204       0.000
 12.214       0.000
 12.224       0.000
 12.234       0.000
 12.244       0.000
 12.254       0.000
 12.264       0.000
 12.274       0.000
 12.284       0.000
 12.294       0.000
 12.304       0.000
 12.314       0.000
 12.324       0.000
 12.334       0.000
 12.344       0.000
 12.354       0.000
 12.364       0.000
 12.374       0.000
 12.384       0.000
 12.394       0.000
 12.404       0.000
 12.414       0.000
 12.424       0.000
 12.434       0.000
 12.444       0.000
 12.454       0.000
 12.464       0.000
 12.474       0.000
 12.484       0.000
 12.494       0.000
 12.505       0.000
 12.515       0.000
 12.525       0.000
 12.535       0.000
 12.545       0.000
 12.555       0.000
 12.565       0.000
 12.575       0.000
 12.585       0.000
 12.595       0.000
 12.605       0.000
 12.615       0.000
 12.625       0.000
 12.635       0.000
 12.645       0.000
 12.655       0.000
 12.665       0.000
 12.675       0.000
 12.685       0.000
 12.695       0.000
 12.705       0.000
 12.715       0.000
 12.725       0.000
 12.735       0.000
 12.745       0.000
 12.755       0.000
 12.765       0.000
 12.775       0.000
 12.785       0.000
 12.795       0.000
 12.805       0.000
 12.815       0.000
 12.825       0.000
 12.835       0.000
 12.845       0.000
 12.855       0.000
 12.865       0.000
 12.875       0.000
 12.885       0.000
 12.895       0.000
 12.905       0.000
 12.915       0.000
 12.925       0.000
 12.935       0.000
 12.945       0.000
 12.955       0.000
 12.965       0.000
 12.975       0.000
 12.985       0.000
 12.995       0.000
 13.005       0.000
 13.015       0.000
 13.025       0.000
 13.035       0.000
 13.045       0.000
 13.055       0.000
 13.066       0.000
 13.076       0.000
 13.086       0.000
 13.096       0.000
 13.106       0.000
 13.116       0.000
 13.126       0.000
 13.136       0.000
 13.146       0.000
 13.156       0.000
 13.166       0.000
 13.176       0.000
 13.186       0.000
 13.196       0.000
 13.206       0.000
 13.216       0.000
 13.226       0.000
 13.236       0.000
 13.246       0.000
 13.256       0.000
 13.266       0.000
 13.276       0.000
 13.286       0.000
 13.296       0.000
 13.306       0.000
 13.316       0.000
 13.326       0.000
 13.336       0.000
 13.346       0.000
 13.356       0.000
 13.366       0.000
 13.376       0.000
 13.386       0.000
 13.396       0.000
 13.406       0.000
 13.416       0.000
 13.426       0.000
 13.436       0.000
 13.446       0.000
 13.456       0.000
 13.466       0.000
 13.476       0.000
 13.486       0.000
 13.496       0.000
 13.506       0.000
 13.516       0.000
 13.526       0.000
 13.536       0.000
 13.546       0.000
 13.556       0.000
 13.566       0.000
 13.576       0.000
 13.586       0.000
 13.596       0.000
 13.606       0.000
 13.616       0.000
 13.627       0.000
 13.637       0.000
 13.647       0.000
 13.657       0.000
 13.667       0.000
 13.677       0.000
 13.687       0.000
 13.697       0.000
 13.707       0.000
 13.717       0.000
 13.727       0.000
 13.737       0.000
 13.747       0.000
 13.757       0.000
 13.767       0.000
 13.777       0.000
 13.787       0.000
 13.797       0.000
 13.807       0.000
 13.817       0.000
 13.827       0.000
 13.837       0.000
 13.847       0.000
 13.857       0.000
 13.867       0.000
 13.877       0.000
 13.887       0.000
 13.897       0.000
 13.907       0.000
 13.917       0.000
 13.927       0.000
 13.937       0.000
 13.947       0.000
 13.957       0.000
 13.967       0.000
 13.977       0.000
 13.987       0.000
 13.997       0.000
 14.007       0.000
 14.017       0.000
 14.027       0.000
 14.037       0.000
 14.047       0.000
 14.057       0.000
 14.067       0.000
 14.077       0.000
 14.087       0.000
 14.097       0.000
 14.107       0.000
 14.117       0.000
 14.127       0.000
 14.137       0.000
 14.147       0.000
 14.157       0.000
 14.167       0.000
 14.178       0.000
 14.188       0.000
 14.198       0.000
 14.208       0.000
 14.218       0.000
 14.228       0.000
 14.238       0.000
 14.248       0.000
 14.258       0.000
 14.268       0.000
 14.278       0.000
 14.288       0.000
 14.298       0.000
 14.308       0.000
 14.318       0.000
 14.328       0.000
 14.338       0.000
 14.348       0.000
 14.358       0.000
 14.368       0.000
 14.378       0.000
 14.388       0.000
 14.398       0.000
 14.408       0.000
 14.418       0.000
 14.428       0.000
 14.438       0.000
 14.448       0.000
 14.458       0.000
 14.468       0.000
 14.478       0.000
 14.488       0.000
 14.498       0.000
 14.508       0.000
 14.518       0.000
 14.528       0.000
 14.538       0.000
 14.548       0.000
 14.558       0.000
 14.568       0.000
 14.578       0.000
 14.588       0.000
 14.598       0.000
 14.608       0.000
 14.618       0.000
 14.628       0.000
 14.638       0.000
 14.648       0.000
 14.658       0.000
 14.668       0.000
 14.678       0.000
 14.688       0.000
 14.698       0.000
 14.708       0.000
 14.718       0.000
 14.728       0.000
 14.739       0.000
 14.749       0.000
 14.759       0.000
 14.769       0.000
 14.779       0.000
 14.789       0.000
 14.799       0.000
 14.809       0.000
 14.819       0.000
 14.829       0.000
 14.839       0.000
 14.849       0.000
 14.859       0.000
 14.869       0.000
 14.879       0.000
 14.889       0.000
 14.899       0.000
 14.909       0.000
 14.919       0.000
 14.929       0.000
 14.939       0.000
 14.949       0.000
 14.959       0.000
 14.969       0.000
 14.979       0.000
 14.989       0.000
 14.999       0.000
 15.009       0.000
 15.019       0.000
 15.029       0.000
 15.039       0.000
 15.049       0.000
 15.059       0.000
 15.069       0.000
 15.079       0.000
 15.089       0.000
 15.099       0.000
 15.109       0.000
 15.119       0.000
 15.129       0.000
 15.139       0.000
 15.149       0.000
 15.159       0.000
 15.169       0.000
 15.179       0.000
 15.189       0.000
 15.199       0.000
 15.209       0.000
 15.219       0.000
 15.229       0.000
 15.239       0.000
 15.249       0.000
 15.259       0.000
 15.269       0.000
 15.279       0.000
 15.290       0.000
 15.300       0.000
 15.310       0.000
 15.320       0.000
 15.330       0.000
 15.340       0.000
 15.350       0.000
 15.360       0.000
 15.370       0.000
 15.380       0.000
 15.390       0.000
 15.400       0.000
 15.410       0.000
 15.420       0.000
 15.430       0.000
 15.440       0.000
 15.450       0.000
 15.460       0.000
 15.470       0.000
 15.480       0.000
 15.490       0.000
 15.500       0.000
 15.510       0.000
 15.520       0.000
 15.530       0.000
 15.540       0.000
 15.550       0.000
 15.560       0.000
 15.570       0.000
 15.580       0.000
 15.590       0.000
 15.600       0.000
 15.610       0.000
 15.620       0.000
 15.630       0.000
 15.640       0.000
 15.650       0.000
 15.660       0.000
 15.670       0.000
 15.680       0.000
 15.690       0.000
 15.700       0.000
 15.710       0.000
 15.720       0.000
 15.730       0.000
 15.740       0.000
 15.750       0.000
 15.760       0.000
 15.770       0.000
 15.780       0.000
 15.790       0.000
 15.800       0.000
 15.810       0.000
 15.820       0.000
 15.830       0.000
 15.840       0.000
 15.851       0.000
 15.861       0.000
 15.871       0.000
 15.881       0.000
 15.891       0.000
 15.901       0.000
 15.911       0.000
 15.921       0.000
 15.931       0.000
 15.941       0.000
 15.951       0.000
 15.961       0.000
 15.971       0.000
 15.981       0.000
 15.991       0.000
 16.001       0.000
 16.011       0.000
 16.021       0.000
 16.031       0.000
 16.041       0.000
 16.051       0.000
 16.061       0.000
 16.071       0.000
 16.081       0.000
 16.091       0.000
 16.101       0.000
 16.111       0.000
 16.121       0.000
 16.131       0.000
 16.141       0.000
 16.151       0.000
 16.161       0.000
 16.171       0.000
 16.181       0.000
 16.191       0.000
 16.201       0.000
 16.211       0.000
 16.221       0.000
 16.231       0.000
 16.241       0.000
 16.251       0.000
 16.261       0.000
 16.271       0.000
 16.281       0.000
 16.291       0.000
 16.301       0.000
 16.311       0.000
 16.321       0.000
 16.331       0.000
 16.341       0.000
 16.351       0.000
 16.361       0.000
 16.371       0.000
 16.381       0.000
 16.391       0.000
 16.402       0.000
 16.412       0.000
 16.422       0.000
 16.432       0.000
 16.442       0.000
 16.452       0.000
 16.462       0.000
 16.472       0.000
 16.482       0.000
 16.492       0.000
 16.502       0.000
 16.512       0.000
 16.522       0.000
 16.532       0.000
 16.542       0.000
 16.552       0.000
 16.562       0.000
 16.572       0.000
 16.582       0.000
 16.592       0.000
 16.602       0.000
 16.612       0.000
 16.622       0.000
 16.632       0.000
 16.642       0.000
 16.652       0.000
 16.662       0.000
 16.672       0.000
 16.682       0.000
 16.692       0.000
 16.702       0.000
 16.712       0.000
 16.722       0.000
 16.732       0.000
 16.742       0.000
 16.752       0.000
 16.762       0.000
 16.772       0.000
 16.782       0.000
 16.792       0.000
 16.802       0.000
 16.812       0.000
 16.822       0.000
 16.832       0.000
 16.842       0.000
 16.852       0.000
 16.862       0.000
 16.872       0.000
 16.882       0.000
 16.892       0.000
 16.902       0.000
 16.912       0.000
 16.922       0.000
 16.932       0.000
 16.942       0.000
 16.952       0.000
 16.963       0.000
 16.973       0.000
 16.983       0.000
 16.993       0.000
 17.003       0.000
 17.013       0.000
 17.023       0.000
 17.033       0.000
 17.043       0.000
 17.053       0.000
 17.063       0.000
 17.073       0.000
 17.083       0.000
 17.093       0.000
 17.103       0.000
 17.113       0.000
 17.123       0.000
 17.133       0.000
 17.143       0.000
 17.153       0.000
 17.163       0.000
 17.173       0.000
 17.183       0.000
 17.193       0.000
 17.203       0.000
 17.213       0.000
 17.223       0.000
 17.233       0.000
 17.243       0.000
 17.253       0.000
 17.263       0.000
 17.273       0.000
 17.283       0.000
 17.293       0.000
 17.303       0.000
 17.313       0.000
 17.323       0.000
 17.333       0.000
 17.343       0.000
 17.353       0.000
 17.363       0.000
 17.373       0.000
 17.383       0.000
 17.393       0.000
 17.403       0.000
 17.413       0.000
 17.423       0.000
 17.433       0.000
 17.443       0.000
 17.453       0.000
 17.463       0.000
 17.473       0.000
 17.483       0.000
 17.493       0.000
 17.503       0.000
 17.514       0.000
 17.524       0.000
 17.534       0.000
 17.544       0.000
 17.554       0.000
 17.564       0.000
 17.574       0.000
 17.584       0.000
 17.594       0.000
 17.604       0.000
 17.614       0.000
 17.624       0.000
 17.634       0.000
 17.644       0.000
 17.654       0.000
 17.664       0.000
 17.674       0.000
 17.684       0.000
 17.694       0.000
 17.704       0.000
 17.714       0.000
 17.724       0.000
 17.734       0.000
 17.744       0.000
 17.754       0.000
 17.764       0.000
 17.774       0.000
 17.784       0.000
 17.794       0.000
 17.804       0.000
 17.814       0.000
 17.824       0.000
 17.834       0.000
 17.844       0.000
 17.854       0.000
 17.864       0.000
 17.874       0.000
 17.884       0.000
 17.894       0.000
 17.904       0.000
 17.914       0.000
 17.924       0.000
 17.934       0.000
 17.944       0.000
 17.954       0.000
 17.964       0.000
 17.974       0.000
 17.984       0.000
 17.994       0.000
 18.004       0.000
 18.014       0.000
 18.024       0.000
 18.034       0.000
 18.044       0.000
 18.054       0.000
 18.064       0.000
 18.075       0.000
 18.085       0.000
 18.095       0.000
 18.105       0.000
 18.115       0.000
 18.125       0.000
 18.135       0.000
 18.145       0.000
 18.155       0.000
 18.165       0.000
 18.175       0.000
 18.185       0.000
 18.195       0.000
 18.205       0.000
 18.215       0.000
 18.225       0.000
 18.235       0.000
 18.245       0.000
 18.255       0.000
 18.265       0.000
 18.275       0.000
 18.285       0.000
 18.295       0.000
 18.305       0.000
 18.315       0.000
 18.325       0.000
 18.335       0.000
 18.345       0.000
 18.355       0.000
 18.365       0.000
 18.375       0.000
 18.385       0.000
 18.395       0.000
 18.405       0.000
 18.415       0.000
 18.425       0.000
 18.435       0.000
 18.445       0.000
 18.455       0.000
 18.465       0.000
 18.475       0.000
 18.485       0.000
 18.495       0.000
 18.505       0.000
 18.515       0.000
 18.525       0.000
 18.535       0.000
 18.545       0.000
 18.555       0.000
 18.565       0.000
 18.575       0.000
 18.585       0.000
 18.595       0.000
 18.605       0.000
 18.615       0.000
 18.625       0.000
 18.636       0.000
 18.646       0.000
 18.656       0.000
 18.666       0.000
 18.676       0.000
 18.686       0.000
 18.696       0.000
 18.706       0.000
 18.716       0.000
 18.726       0.000
 18.736       0.000
 18.746       0.000
 18.756       0.000
 18.766       0.000
 18.776       0.000
 18.786       0.000
 18.796       0.000
 18.806       0.000
 18.816       0.000
 18.826       0.000
 18.836       0.000
 18.846       0.000
 18.856       0.000
 18.866       0.000
 18.876       0.000
 18.886       0.000
 18.896       0.000
 18.906       0.000
 18.916       0.000
 18.926       0.000
 18.936       0.000
 18.946       0.000
 18.956       0.000
 18.966       0.000
 18.976       0.000
 18.986       0.000
 18.996       0.000
 19.006       0.000
 19.016       0.000
 19.026       0.000
 19.036       0.000
 19.046       0.000
 19.056       0.000
 19.066       0.000
 19.076       0.000
 19.086       0.000
 19.096       0.000
 19.106       0.000
 19.116       0.000
 19.126       0.000
 19.136       0.000
 19.146       0.000
 19.156       0.000
 19.166       0.000
 19.176       0.000
 19.187       0.000
 19.197       0.000
 19.207       0.000
 19.217       0.000
 19.227       0.000
 19.237       0.000
 19.247       0.000
 19.257       0.000
 19.267       0.000
 19.277       0.000
 19.287       0.000
 19.297       0.000
 19.307       0.000
 19.317       0.000
 19.327      58.502
 19.337      60.967
 19.347      63.590
 19.357      66.386
 19.367      69.370
 19.377      72.560
 19.387      75.975
 19.397      79.637
 19.407      83.569
 19.417      87.800
 19.427      92.359
 19.437      97.284
 19.447     102.612
 19.457     108.389
 19.467     114.668
 19.477     121.508
 19.487     128.976
 19.497     137.156
 19.507     146.135
 19.517     156.025
 19.527     166.953
 19.537     179.065
 19.547     192.541
 19.557     207.596
 19.567     224.480
 19.577     243.503
 19.587     265.046
 19.597     289.562
 19.607     317.629
 19.617     349.962
 19.627     387.476
 19.637     431.313
 19.647     482.980
 19.657     544.456
 19.667     618.337
 19.677     708.178
 19.687     818.898
 19.697     957.345
 19.707    1133.477
 19.717    1362.057
 19.727    1665.447
 19.737    2079.092
 19.748    2661.100
 19.758    3510.068
 19.768    4801.023
 19.778    6851.356
 19.788   15448.173
 19.798   20094.744
 19.808   23386.393
 19.818   24349.742
 19.828   22682.607
 19.838   18904.232
 19.848   14094.958
 19.858    6186.416
 19.868    4388.168
 19.878    3242.258
 19.888    2479.922
 19.898    1951.852
 19.908    1572.975
 19.918    1292.986
 19.928    1080.668
 19.938     916.070
 19.948     786.077
 19.958     681.689
 19.968     596.633
 19.978     526.469
 19.988     467.923
 19.998     418.568
 20.008     376.602
 20.018     340.618
 20.028     309.531
 20.038     282.504
 20.048     258.857
 20.058     238.050
 20.068     219.645
 20.078     203.293
 20.088     188.696
 20.098     175.611
 20.108     163.841
 20.118     153.214
 20.128     143.584
 20.138     134.835
 20.148     126.860
 20.158     119.570
 20.168     112.891
 20.178     106.756
 20.188     101.106
 20.198      95.894
 20.208      91.073
 20.218      86.607
 20.228      82.461
 20.238      78.606
 20.248      75.014
 20.258      71.663
 20.268      68.531
 20.278      65.600
 20.288      62.853
 20.299      60.275
 20.309      57.852
 20.319       0.000
 20.329       0.000
 20.339       0.000
 20.349       0.000
 20.359       0.000
 20.369       0.000
 20.379       0.000
 20.389       0.000
 20.399       0.000
 20.409       0.000
 20.419       0.000
 20.429       0.000
 20.439       0.000
 20.449       0.000
 20.459       0.000
 20.469       0.000
 20.479       0.000
 20.489       0.000
 20.499       0.000
 20.509       0.000
 20.519       0.000
 20.529       0.000
 20.539       0.000
 20.549       0.000
 20.559       0.000
 20.569       0.000
 20.579       0.000
 20.589       0.000
 20.599       0.000
 20.609       0.000
 20.619       0.000
 20.629       0.000
 20.639       0.000
 20.649       0.000
 20.659       0.000
 20.669       0.000
 20.679       0.000
 20.689       0.000
 20.699       0.000
 20.709       0.000
 20.719       0.000
 20.729       0.000
 20.739       0.000
 20.749       0.000
 20.759       0.000
 20.769       0.000
 20.779       0.000
 20.789       0.000
 20.799       0.000
 20.809       0.000
 20.819       0.000
 20.829       0.000
 20.839       0.000
 20.849       0.000
 20.860       0.000
 20.870       0.000
 20.880       0.000
 20.890       0.000
 20.900       0.000
 20.910       0.000
 20.920       0.000
 20.930       0.000
 20.940       0.000
 20.950       0.000
 20.960       0.000
 20.970       0.000
 20.980       0.000
 20.990       0.000
 21.000       0.000
 21.010       0.000
 21.020       0.000
 21.030       0.000
 21.040       0.000
 21.050       0.000
 21.060       0.000
 21.070       0.000
 21.080       0.000
 21.090       0.000
 21.100       0.000
 21.110       0.000
 21.120       0.000
 21.130       0.000
 21.140       0.000
 21.150       0.000
 21.160       0.000
 21.170       0.000
 21.180       0.000
 21.190       0.000
 21.200       0.000
 21.210       0.000
 21.220       0.000
 21.230       0.000
 21.240       0.000
 21.250       0.000
 21.260       0.000
 21.270       0.000
 21.280       0.000
 21.290       0.000
 21.300       0.000
 21.310       0.000
 21.320       0.000
 21.330       0.000
 21.340       0.000
 21.350       0.000
 21.360       0.000
 21.370       0.000
 21.380       0.000
 21.390       0.000
 21.400       0.000
 21.411       0.000
 21.421       0.000
 21.431       0.000
 21.441       0.000
 21.451       0.000
 21.461       0.000
 21.471       0.000
 21.481       0.000
 21.491       0.000
 21.501       0.000
 21.511       0.000
 21.521       0.000
 21.531       0.000
 21.541       0.000
 21.551       0.000
 21.561       0.000
 21.571       0.000
 21.581       0.000
 21.591       0.000
 21.601       0.000
 21.611       0.000
 21.621       0.000
 21.631       0.000
 21.641       0.000
 21.651       0.000
 21.661       0.000
 21.671       0.000
 21.681       0.000
 21.691       0.000
 21.701       0.000
 21.711       0.000
 21.721       0.000
 21.731       0.000
 21.741       0.000
 21.751       0.000
 21.761       0.000
 21.771       0.000
 21.781       0.000
 21.791       0.000
 21.801       0.000
 21.811       0.000
 21.821       0.000
 21.831       0.000
 21.841       0.000
 21.851       0.000
 21.861       0.000
 21.871       0.000
 21.881       0.000
 21.891       0.000
 21.901       0.000
 21.911       0.000
 21.921       0.000
 21.931       0.000
 21.941       0.000
 21.951       0.000
 21.961       0.000
 21.972       0.000
 21.982       0.000
 21.992       0.000
 22.002       0.000
 22.012       0.000
 22.022       0.000
 22.032       0.000
 22.042       0.000
 22.052       0.000
 22.062       0.000
 22.072       0.000
 22.082       0.000
 22.092       0.000
 22.102       0.000
 22.112       0.000
 22.122       0.000
 22.132       0.000
 22.142       0.000
 22.152       0.000
 22.162       0.000
 22.172       0.000
 22.182       0.000
 22.192       0.000
 22.202       0.000
 22.212       0.000
 22.222       0.000
 22.232       0.000
 22.242       0.000
 22.252       0.000
 22.262       0.000
 22.272       0.000
 22.282       0.000
 22.292       0.000
 22.302       0.000
 22.312       0.000
 22.322       0.000
 22.332       0.000
 22.342       0.000
 22.352       0.000
 22.362       0.000
 22.372       0.000
 22.382       0.000
 22.392       0.000
 22.402       0.000
 22.412       0.000
 22.422       0.000
 22.432       0.000
 22.442       0.000
 22.452       0.000
 22.462       0.000
 22.472       0.000
 22.482       0.000
 22.492       0.000
 22.502       0.000
 22.512       0.000
 22.522       0.000
 22.533       0.000
 22.543       0.000
 22.553       0.000
 22.563       0.000
 22.573       0.000
 22.583       0.000
 22.593       0.000
 22.603       0.000
 22.613       0.000
 22.623       0.000
 22.633       0.000
 22.643       0.000
 22.653       0.000
 22.663       0.000
 22.673       0.000
 22.683       0.000
 22.693       0.000
 22.703       0.000
 22.713       0.000
 22.723       0.000
 22.733       0.000
 22.743       0.000
 22.753       0.000
 22.763       0.000
 22.773       0.000
 22.783       0.000
 22.793       0.000
 22.803       0.000
 22.813       0.000
 22.823       0.000
 22.833       0.000
 22.843       0.000
 22.853       0.000
 22.863       0.000
 22.873       0.000
 22.883       0.000
 22.893       0.000
 22.903       0.000
 22.913       0.000
 22.923       0.000
 22.933       0.000
 22.943       0.000
 22.953       0.000
 22.963       0.000
 22.973       0.000
 22.983       0.000
 22.993       0.000
 23.003       0.000
 23.013       0.000
 23.023       0.000
 23.033       0.000
 23.043       0.000
 23.053       0.000
 23.063       0.000
 23.073       0.000
 23.084       0.000
 23.094       0.000
 23.104       0.000
 23.114       0.000
 23.124       0.000
 23.134       0.000
 23.144       0.000
 23.154       0.000
 23.164       0.000
 23.174       0.000
 23.184       0.000
 23.194       0.000
 23.204       0.000
 23.214       0.000
 23.224       0.000
 23.234       0.000
 23.244       0.000
 23.254       0.000
 23.264       0.000
 23.274       0.000
 23.284       0.000
 23.294       0.000
 23.304       0.000
 23.314       0.000
 23.324       0.000
 23.334       0.000
 23.344       0.000
 23.354       0.000
 23.364       0.000
 23.374       0.000
 23.384       0.000
 23.394       0.000
 23.404       0.000
 23.414       0.000
 23.424       0.000
 23.434       0.000
 23.444       0.000
 23.454       0.000
 23.464       0.000
 23.474       0.000
 23.484       0.000
 23.494       0.000
 23.504       0.000
 23.514       0.000
 23.524       0.000
 23.534       0.000
 23.544       0.000
 23.554       0.000
 23.564       0.000
 23.574       0.000
 23.584       0.000
 23.594       0.000
 23.604       0.000
 23.614       0.000
 23.624       0.000
 23.634       0.000
 23.645       0.000
 23.655       0.000
 23.665       0.000
 23.675       0.000
 23.685       0.000
 23.695       0.000
 23.705       0.000
 23.715       0.000
 23.725       0.000
 23.735       0.000
 23.745       0.000
 23.755       0.000
 23.765       0.000
 23.775       0.000
 23.785       0.000
 23.795       0.000
 23.805       0.000
 23.815       0.000
 23.825       0.000
 23.835       0.000
 23.845       0.000
 23.855       0.000
 23.865       0.000
 23.875       0.000
 23.885       0.000
 23.895       0.000
 23.905       0.000
 23.915       0.000
 23.925       0.000
 23.935       0.000
 23.945       0.000
 23.955       0.000
 23.965       0.000
 23.975       0.000
 23.985       0.000
 23.995       0.000
 24.005       0.000
 24.015       0.000
 24.025       0.000
 24.035       0.000
 24.045       0.000
 24.055       0.000
 24.065       0.000
 24.075       0.000
 24.085       0.000
 24.095       0.000
 24.105       0.000
 24.115       0.000
 24.125       0.000
 24.135       0.000
 24.145       0.000
 24.155       0.000
 24.165       0.000
 24.175       0.000
 24.185       0.000
 24.196       0.000
 24.206       0.000
 24.216       0.000
 24.226       0.000
 24.236       0.000
 24.246       0.000
 24.256       0.000
 24.266       0.000
 24.276       0.000
 24.286       0.000
 24.296       0.000
 24.306       0.000
 24.316       0.000
 24.326       0.000
 24.336       0.000
 24.346       0.000
 24.356       0.000
 24.366       0.000
 24.376       0.000
 24.386       0.000
 24.396       0.000
 24.406       0.000
 24.416       0.000
 24.426       0.000
 24.436       0.000
 24.446       0.000
 24.456       0.000
 24.466       0.000
 24.476       0.000
 24.486       0.000
 24.496       0.000
 24.506       0.000
 24.516       0.000
 24.526       0.000
 24.536       0.000
 24.546       0.000
 24.556       0.000
 24.566       0.000
 24.576       0.000
 24.586       0.000
 24.596       0.000
 24.606       0.000
 24.616       0.000
 24.626       0.000
 24.636       0.000
 24.646       0.000
 24.656       0.000
 24.666       0.000
 24.676       0.000
 24.686       0.000
 24.696       0.000
 24.706       0.000
 24.716       0.000
 24.726       0.000
 24.736       0.000
 24.746       0.000
 24.757       0.000
 24.767       0.000
 24.777       0.000
 24.787       0.000
 24.797       0.000
 24.807       0.000
 24.817       0.000
 24.827       0.000
 24.837       0.000
 24.847       0.000
 24.857       0.000
 24.867       0.000
 24.877       0.000
 24.887       0.000
 24.897       0.000
 24.907       0.000
 24.917       0.000
 24.927       0.000
 24.937       0.000
 24.947       0.000
 24.957       0.000
 24.967       0.000
 24.977       0.000
 24.987       0.000
 24.997       0.000
 25.007       0.000
 25.017       0.000
 25.027       0.000
 25.037       0.000
 25.047       0.000
 25.057       0.000
 25.067       0.000
 25.077       0.000
 25.087       0.000
 25.097       0.000
 25.107       0.000
 25.117       0.000
 25.127       0.000
 25.137       0.000
 25.147       0.000
 25.157       0.000
 25.167       0.000
 25.177       0.000
 25.187       0.000
 25.197       0.000
 25.207       0.000
 25.217       0.000
 25.227       0.000
 25.237       0.000
 25.247       0.000
 25.257       0.000
 25.267       0.000
 25.277       0.000
 25.287       0.000
 25.297       0.000
 25.308       0.000
 25.318       0.000
 25.328       0.000
 25.338       0.000
 25.348       0.000
 25.358       0.000
 25.368       0.000
 25.378       0.000
 25.388       0.000
 25.398       0.000
 25.408       0.000
 25.418       0.000
 25.428       0.000
 25.438       0.000
 25.448       0.000
 25.458       0.000
 25.468       0.000
 25.478       0.000
 25.488       0.000
 25.498       0.000
 25.508       0.000
 25.518       0.000
 25.528       0.000
 25.538       0.000
 25.548       0.000
 25.558       0.000
 25.568       0.000
 25.578       0.000
 25.588       0.000
 25.598       0.000
 25.608       0.000
 25.618       0.000
 25.628       0.000
 25.638       0.000
 25.648       0.000
 25.658       0.000
 25.668       0.000
 25.678       0.000
 25.688       0.000
 25.698       0.000
 25.708       0.000
 25.718       0.000
 25.728       0.000
 25.738       0.000
 25.748       0.000
 25.758       0.000
 25.768       0.000
 25.778       0.000
 25.788       0.000
 25.798       0.000
 25.808       0.000
 25.818       0.000
 25.828       0.000
 25.838       0.000
 25.848       0.000
 25.858       0.000
 25.869       0.000
 25.879       0.000
 25.889       0.000
 25.899       0.000
 25.909       0.000
 25.919       0.000
 25.929       0.000
 25.939       0.000
 25.949       0.000
 25.959       0.000
 25.969       0.000
 25.979       0.000
 25.989       0.000
 25.999       0.000
 26.009       0.000
 26.019       0.000
 26.029       0.000
 26.039       0.000
 26.049       0.000
 26.059       0.000
 26.069       0.000
 26.079       0.000
 26.089       0.000
 26.099       0.000
 26.109       0.000
 26.119       0.000
 26.129       0.000
 26.139       0.000
 26.149       0.000
 26.159       0.000
 26.169       0.000
 26.179       0.000
 26.189       0.000
 26.199       0.000
 26.209       0.000
 26.219       0.000
 26.229       0.000
 26.239       0.000
 26.249       0.000
 26.259       0.000
 26.269       0.000
 26.279       0.000
 26.289       0.000
 26.299       0.000
 26.309       0.000
 26.319       0.000
 26.329       0.000
 26.339       0.000
 26.349       0.000
 26.359       0.000
 26.369       0.000
 26.379       0.000
 26.389       0.000
 26.399       0.000
 26.409       0.000
 26.420       0.000
 26.430       0.000
 26.440       0.000
 26.450       0.000
 26.460       0.000
 26.470       0.000
 26.480       0.000
 26.490       0.000
 26.500       0.000
 26.510       0.000
 26.520       0.000
 26.530       0.000
 26.540       0.000
 26.550       0.000
 26.560       0.000
 26.570       0.000
 26.580       0.000
 26.590       0.000
 26.600       0.000
 26.610       0.000
 26.620       0.000
 26.630       0.000
 26.640       0.000
 26.650       0.000
 26.660       0.000
 26.670       0.000
 26.680       0.000
 26.690       0.000
 26.700       0.000
 26.710       0.000
 26.720       0.000
 26.730       0.000
 26.740       0.000
 26.750       0.000
 26.760       0.000
 26.770       0.000
 26.780       0.000
 26.790       0.000
 26.800       0.000
 26.810       0.000
 26.820       0.000
 26.830       0.000
 26.840       0.000
 26.850       0.000
 26.860       0.000
 26.870       0.000
 26.880       0.000
 26.890       0.000
 26.900       0.000
 26.910       0.000
 26.920       0.000
 26.930       0.000
 26.940       0.000
 26.950       0.000
 26.960       0.000
 26.970       0.000
 26.981       0.000
 26.991       0.000
 27.001       0.000
 27.011       0.000
 27.021       0.000
 27.031       0.000
 27.041       0.000
 27.051       0.000
 27.061       0.000
 27.071       0.000
 27.081       0.000
 27.091       0.000
 27.101       0.000
 27.111       0.000
 27.121       0.000
 27.131       0.000
 27.141       0.000
 27.151       0.000
 27.161       0.000
 27.171       0.000
 27.181       0.000
 27.191       0.000
 27.201       0.000
 27.211       0.000
 27.221       0.000
 27.231       0.000
 27.241       0.000
 27.251       0.000
 27.261       0.000
 27.271       0.000
 27.281       0.000
 27.291       0.000
 27.301       0.000
 27.311       0.000
 27.321       0.000
 27.331       0.000
 27.341       0.000
 27.351       0.000
 27.361       0.000
 27.371       0.000
 27.381       0.000
 27.391       0.000
 27.401       0.000
 27.411       0.000
 27.421       0.000
 27.431       0.000
 27.441       0.000
 27.451       0.000
 27.461       0.000
 27.471       0.000
 27.481       0.000
 27.491       0.000
 27.501       0.000
 27.511       0.000
 27.521       0.000
 27.531       0.000
 27.542       0.000
 27.552       0.000
 27.562       0.000
 27.572       0.000
 27.582       0.000
 27.592       0.000
 27.602       0.000
 27.612       0.000
 27.622       0.000
 27.632       0.000
 27.642       0.000
 27.652       0.000
 27.662       0.000
 27.672       0.000
 27.682       0.000
 27.692       0.000
 27.702       0.000
 27.712       0.000
 27.722       0.000
 27.732       0.000
 27.742       0.000
 27.752       0.000
 27.762       0.000
 27.772       0.000
 27.782       0.000
 27.792       0.000
 27.802       0.000
 27.812       0.000
 27.822       0.000
 27.832       0.000
 27.842       0.000
 27.852       0.000
 27.862       0.000
 27.872       0.000
 27.882       0.000
 27.892       0.000
 27.902       0.000
 27.912       0.000
 27.922       0.000
 27.932       0.000
 27.942       0.000
 27.952       0.000
 27.962       0.000
 27.972       0.000
 27.982       0.000
 27.992       0.000
 28.002       0.000
 28.012       0.000
 28.022       0.000
 28.032       0.000
 28.042       0.000
 28.052       0.000
 28.062       0.000
 28.072       0.000
 28.082       0.000
 28.093       0.000
 28.103       0.000
 28.113       0.000
 28.123       0.000
 28.133       0.000
 28.143       0.000
 28.153       0.000
 28.163       0.000
 28.173       0.000
 28.183       0.000
 28.193       0.000
 28.203       0.000
 28.213       0.000
 28.223       0.000
 28.233       0.000
 28.243       0.000
 28.253       0.000
 28.263       0.000
 28.273       0.000
 28.283       0.000
 28.293       0.000
 28.303       0.000
 28.313       0.000
 28.323       0.000
 28.333       0.000
 28.343       0.000
 28.353       0.000
 28.363       0.000
 28.373       0.000
 28.383       0.000
 28.393       0.000
 28.403       0.000
 28.413       0.000
 28.423       0.000
 28.433       0.000
 28.443       0.000
 28.453       0.000
 28.463       0.000
 28.473       0.000
 28.483       0.000
 28.493       0.000
 28.503       0.000
 28.513       0.000
 28.523       0.000
 28.533       0.000
 28.543       0.000
 28.553       0.000
 28.563       0.000
 28.573       0.000
 28.583       0.000
 28.593       0.000
 28.603       0.000
 28.613       0.000
 28.623       0.000
 28.633       0.000
 28.643       0.000
 28.654       0.000
 28.664       0.000
 28.674       0.000
 28.684       0.000
 28.694       0.000
 28.704       0.000
 28.714       0.000
 28.724       0.000
 28.734       0.000
 28.744       0.000
 28.754       0.000
 28.764       0.000
 28.774       0.000
 28.784       0.000
 28.794       0.000
 28.804       0.000
 28.814       0.000
 28.824       0.000
 28.834       0.000
 28.844       0.000
 28.854       0.000
 28.864       0.000
 28.874       0.000
 28.884       0.000
 28.894       0.000
 28.904       0.000
 28.914       0.000
 28.924       0.000
 28.934       0.000
 28.944       0.000
 28.954       0.000
 28.964       0.000
 28.974       0.000
 28.984       0.000
 28.994       0.000
 29.004       0.000
 29.014       0.000
 29.024       0.000
 29.034       0.000
 29.044       0.000
 29.054       0.000
 29.064       0.000
 29.074       0.000
 29.084       0.000
 29.094       0.000
 29.104       0.000
 29.114       0.000
 29.124       0.000
 29.134       0.000
 29.144       0.000
 29.154       0.000
 29.164       0.000
 29.174       0.000
 29.184       0.000
 29.194       0.000
 29.205       0.000
 29.215       0.000
 29.225       0.000
 29.235       0.000
 29.245       0.000
 29.255       0.000
 29.265       0.000
 29.275       0.000
 29.285       0.000
 29.295       0.000
 29.305       0.000
 29.315       0.000
 29.325       0.000
 29.335       0.000
 29.345       0.000
 29.355       0.000
 29.365       0.000
 29.375       0.000
 29.385       0.000
 29.395       0.000
 29.405       0.000
 29.415       0.000
 29.425       0.000
 29.435       0.000
 29.445       0.000
 29.455       0.000
 29.465       0.000
 29.475       0.000
 29.485       0.000
 29.495       0.000
 29.505       0.000
 29.515       0.000
 29.525       0.000
 29.535       0.000
 29.545       0.000
 29.555       0.000
 29.565       0.000
 29.575       0.000
 29.585       0.000
 29.595       0.000
 29.605       0.000
 29.615       0.000
 29.625       0.000
 29.635       0.000
 29.645       0.000
 29.655       0.000
 29.665       0.000
 29.675       0.000
 29.685       0.000
 29.695       0.000
 29.705       0.000
 29.715       0.000
 29.725       0.000
 29.735       0.000
 29.745       0.000
 29.755       0.000
 29.766       0.000
 29.776       0.000
 29.786       0.000
 29.796       0.000
 29.806       0.000
 29.816       0.000
 29.826       0.000
 29.836       0.000
 29.846       0.000
 29.856       0.000
 29.866       0.000
 29.876       0.000
 29.886       0.000
 29.896       0.000
 29.906       0.000
 29.916       0.000
 29.926       0.000
 29.936       0.000
 29.946       0.000
 29.956       0.000
 29.966       0.000
 29.976       0.000
 29.986       0.000
 29.996       0.000
 30.006       0.000
 30.016       0.000
 30.026       0.000
 30.036       0.000
 30.046       0.000
 30.056       0.000
 30.066       0.000
 30.076       0.000
 30.086       0.000
 30.096       0.000
 30.106       0.000
 30.116       0.000
 30.126       0.000
 30.136       0.000
 30.146       0.000
 30.156       0.000
 30.166       0.000
 30.176       0.000
 30.186       0.000
 30.196       0.000
 30.206       0.000
 30.216       0.000
 30.226       0.000
 30.236       0.000
 30.246       0.000
 30.256       0.000
 30.266       0.000
 30.276       0.000
 30.286       0.000
 30.296       0.000
 30.306       0.000
 30.317       0.000
 30.327       0.000
 30.337       0.000
 30.347       0.000
 30.357       0.000
 30.367       0.000
 30.377       0.000
 30.387       0.000
 30.397       0.000
 30.407       0.000
 30.417       0.000
 30.427       0.000
 30.437       0.000
 30.447       0.000
 30.457       0.000
 30.467       0.000
 30.477       0.000
 30.487       0.000
 30.497       0.000
 30.507       0.000
 30.517       0.000
 30.527       0.000
 30.537       0.000
 30.547       0.000
 30.557       0.000
 30.567       0.000
 30.577       0.000
 30.587       0.000
 30.597       0.000
 30.607       0.000
 30.617       0.000
 30.627       0.000
 30.637       0.000
 30.647       0.000
 30.657       0.000
 30.667       0.000
 30.677       0.000
 30.687       0.000
 30.697       0.000
 30.707       0.000
 30.717       0.000
 30.727       0.000
 30.737       0.000
 30.747       0.000
 30.757       0.000
 30.767       0.000
 30.777       0.000
 30.787       0.000
 30.797       0.000
 30.807       0.000
 30.817       0.000
 30.827       0.000
 30.837       0.000
 30.847       0.000
 30.857       0.000
 30.867       0.000
 30.878       0.000
 30.888       0.000
 30.898       0.000
 30.908       0.000
 30.918       0.000
 30.928       0.000
 30.938       0.000
 30.948       0.000
 30.958       0.000
 30.968       0.000
 30.978       0.000
 30.988       0.000
 30.998       0.000
 31.008       0.000
 31.018       0.000
 31.028       0.000
 31.038       0.000
 31.048       0.000
 31.058       0.000
 31.068       0.000
 31.078       0.000
 31.088       0.000
 31.098       0.000
 31.108       0.000
 31.118       0.000
 31.128       0.000
 31.138       0.000
 31.148       0.000
 31.158       0.000
 31.168       0.000
 31.178       0.000
 31.188       0.000
 31.198       0.000
 31.208       0.000
 31.218       0.000
 31.228       0.000
 31.238       0.000
 31.248       0.000
 31.258       0.000
 31.268       0.000
 31.278       0.000
 31.288       0.000
 31.298       0.000
 31.308       0.000
 31.318       0.000
 31.328       0.000
 31.338       0.000
 31.348       0.000
 31.358       0.000
 31.368       0.000
 31.378       0.000
 31.388       0.000
 31.398       0.000
 31.408       0.000
 31.418       0.000
 31.429       0.000
 31.439       0.000
 31.449       0.000
 31.459       0.000
 31.469       0.000
 31.479       0.000
 31.489       0.000
 31.499       0.000
 31.509       0.000
 31.519       0.000
 31.529       0.000
 31.539       0.000
 31.549       0.000
 31.559       0.000
 31.569       0.000
 31.579       0.000
 31.589       0.000
 31.599       0.000
 31.609       0.000
 31.619       0.000
 31.629       0.000
 31.639       0.000
 31.649       0.000
 31.659       0.000
 31.669       0.000
 31.679       0.000
 31.689       0.000
 31.699       0.000
 31.709       0.000
 31.719       0.000
 31.729       0.000
 31.739       0.000
 31.749       0.000
 31.759       0.000
 31.769       0.000
 31.779       0.000
 31.789       0.000
 31.799       0.000
 31.809       0.000
 31.819       0.000
 31.829       0.000
 31.839       0.000
 31.849       0.000
 31.859       0.000
 31.869       0.000
 31.879       0.000
 31.889       0.000
 31.899       0.000
 31.909       0.000
 31.919       0.000
 31.929       0.000
 31.939       0.000
 31.949       0.000
 31.959       0.000
 31.969       0.000
 31.979       0.000
 31.990       0.000
 32.000       0.000
 32.010       0.000
 32.020       0.000
 32.030       0.000
 32.040       0.000
 32.050       0.000
 32.060       0.000
 32.070       0.000
 32.080       0.000
 32.090       0.000
 32.100       0.000
 32.110       0.000
 32.120       0.000
 32.130       0.000
 32.140       0.000
 32.150      25.787
 32.160      26.875
 32.170      28.034
 32.180      29.270
 32.190      30.588
 32.200      31.998
 32.210      33.508
 32.220      35.127
 32.230      36.866
 32.240      38.737
 32.250      40.754
 32.260      42.932
 32.270      45.291
 32.280      47.848
 32.290      50.627
 32.300      53.656
 32.310      56.965
 32.320      60.588
 32.330      64.569
 32.340      68.954
 32.350      73.799
 32.360      79.173
 32.370      85.154
 32.380      91.838
 32.390      99.337
 32.400     107.795
 32.410     117.372
 32.420     128.279
 32.430     140.773
 32.440     155.177
 32.450     171.897
 32.460     191.463
 32.470     214.535
 32.480     242.010
 32.490     275.072
 32.500     315.326
 32.510     364.996
 32.520     427.242
 32.530     506.553
 32.541     609.681
 32.551     746.929
 32.561     934.607
 32.571    1199.526
 32.581    1587.563
 32.591    2180.495
 32.601    3125.605
 32.611    6999.586
 32.621    9002.888
 32.631   10359.979
 32.641   10666.043
 32.651    9824.095
 32.661    8095.685
 32.671    5968.733
 32.681    2617.477
 32.691    1864.812
 32.701    1383.150
 32.711    1061.169
 32.721     837.388
 32.731     676.333
 32.741     556.956
 32.751     466.216
 32.761     395.738
 32.771     339.968
 32.781     295.098
 32.791     258.509
 32.801     228.285
 32.811     203.037
 32.821     181.737
 32.831     163.606
 32.841     148.043
 32.851     134.595
 32.861     122.894
 32.871     112.650
 32.881     103.632
 32.891      95.652
 32.901      88.554
 32.911      82.219
 32.921      76.539
 32.931      71.426
 32.941      66.808
 32.951      62.623
 32.961      58.819
 32.971      55.349
 32.981      52.178
 32.991      49.272
 33.001      46.601
 33.011      44.142
 33.021      41.872
 33.031      39.772
 33.041      37.826
 33.051      36.020
 33.061      34.340
 33.071      32.775
 33.081      31.314
 33.091      29.948
 33.102      28.670
 33.112      27.472
 33.122      26.348
 33.132      25.291
 33.142       0.000
 33.152       0.000
 33.162       0.000
 33.172       0.000
 33.182       0.000
 33.192       0.000
 33.202       0.000
 33.212       0.000
 33.222       0.000
 33.232       0.000
 33.242       0.000
 33.252       0.000
 33.262       0.000
 33.272       0.000
 33.282       0.000
 33.292       0.000
 33.302       0.000
 33.312       0.000
 33.322       0.000
 33.332       0.000
 33.342       0.000
 33.352       0.000
 33.362       0.000
 33.372       0.000
 33.382       0.000
 33.392       0.000
 33.402       0.000
 33.412       0.000
 33.422       0.000
 33.432       0.000
 33.442       0.000
 33.452       0.000
 33.462       0.000
 33.472       0.000
 33.482       0.000
 33.492       0.000
 33.502       0.000
 33.512       0.000
 33.522       0.000
 33.532       0.000
 33.542       0.000
 33.552       0.000
 33.562       0.000
 33.572       0.000
 33.582       0.000
 33.592       0.000
 33.602       0.000
 33.612       0.000
 33.622       0.000
 33.632       0.000
 33.642       0.000
 33.652       0.000
 33.663       0.000
 33.673       0.000
 33.683       0.000
 33.693       0.000
 33.703       0.000
 33.713       0.000
 33.723       0.000
 33.733       0.000
 33.743       0.000
 33.753       0.000
 33.763       0.000
 33.773       0.000
 33.783       0.000
 33.793       0.000
 33.803       0.000
 33.813       0.000
 33.823       0.000
 33.833       0.000
 33.843       0.000
 33.853       0.000
 33.863       0.000
 33.873       0.000
 33.883       0.000
 33.893       0.000
 33.903       0.000
 33.913       0.000
 33.923       0.000
 33.933       0.000
 33.943       0.000
 33.953       0.000
 33.963       0.000
 33.973       0.000
 33.983       0.000
 33.993       0.000
 34.003       0.000
 34.013       0.000
 34.023       0.000
 34.033       0.000
 34.043       0.000
 34.053       0.000
 34.063       0.000
 34.073       0.000
 34.083       0.000
 34.093       0.000
 34.103       0.000
 34.113       0.000
 34.123       0.000
 34.133       0.000
 34.143       0.000
 34.153       0.000
 34.163       0.000
 34.173       0.000
 34.183       0.000
 34.193       0.000
 34.203       0.000
 34.214       0.000
 34.224       0.000
 34.234       0.000
 34.244       0.000
 34.254       0.000
 34.264       0.000
 34.274       0.000
 34.284       0.000
 34.294       0.000
 34.304       0.000
 34.314       0.000
 34.324       0.000
 34.334       0.000
 34.344       0.000
 34.354       0.000
 34.364       0.000
 34.374       0.000
 34.384       0.000
 34.394       0.000
 34.404       0.000
 34.414       0.000
 34.424       0.000
 34.434       0.000
 34.444       0.000
 34.454       0.000
 34.464       0.000
 34.474       0.000
 34.484       0.000
 34.494       0.000
 34.504       0.000
 34.514       0.000
 34.524       0.000
 34.534       0.000
 34.544       0.000
 34.554       0.000
 34.564       0.000
 34.574       0.000
 34.584       0.000
 34.594       0.000
 34.604       0.000
 34.614       0.000
 34.624       0.000
 34.634       0.000
 34.644       0.000
 34.654       0.000
 34.664       0.000
 34.674       0.000
 34.684       0.000
 34.694       0.000
 34.704       0.000
 34.714       0.000
 34.724       0.000
 34.734       0.000
 34.744       0.000
 34.754       0.000
 34.764       0.000
 34.775       0.000
 34.785       0.000
 34.795       0.000
 34.805       0.000
 34.815       0.000
 34.825       0.000
 34.835       0.000
 34.845       0.000
 34.855       0.000
 34.865       0.000
 34.875       0.000
 34.885       0.000
 34.895       0.000
 34.905       0.000
 34.915       0.000
 34.925       0.000
 34.935       0.000
 34.945       0.000
 34.955       0.000
 34.965       0.000
 34.975       0.000
 34.985       0.000
 34.995       0.000
 35.005       0.000
 35.015       0.000
 35.025       0.000
 35.035       0.000
 35.045       0.000
 35.055       0.000
 35.065       0.000
 35.075       0.000
 35.085       0.000
 35.095       0.000
 35.105       0.000
 35.115       0.000
 35.125       0.000
 35.135       0.000
 35.145       0.000
 35.155       0.000
 35.165       0.000
 35.175       0.000
 35.185       0.000
 35.195       0.000
 35.205       0.000
 35.215       0.000
 35.225       0.000
 35.235       0.000
 35.245       0.000
 35.255       0.000
 35.265       0.000
 35.275       0.000
 35.285       0.000
 35.295       0.000
 35.305       0.000
 35.315       0.000
 35.326       0.000
 35.336       0.000
 35.346       0.000
 35.356       0.000
 35.366       0.000
 35.376       0.000
 35.386       0.000
 35.396       0.000
 35.406       0.000
 35.416       0.000
 35.426       0.000
 35.436       0.000
 35.446       0.000
 35.456       0.000
 35.466       0.000
 35.476       0.000
 35.486       0.000
 35.496       0.000
 35.506       0.000
 35.516       0.000
 35.526       0.000
 35.536       0.000
 35.546       0.000
 35.556       0.000
 35.566       0.000
 35.576       0.000
 35.586       0.000
 35.596       0.000
 35.606       0.000
 35.616       0.000
 35.626       0.000
 35.636       0.000
 35.646       0.000
 35.656       0.000
 35.666       0.000
 35.676       0.000
 35.686       0.000
 35.696       0.000
 35.706       0.000
 35.716       0.000
 35.726       0.000
 35.736       0.000
 35.746       0.000
 35.756       0.000
 35.766       0.000
 35.776       0.000
 35.786       0.000
 35.796       0.000
 35.806       0.000
 35.816       0.000
 35.826       0.000
 35.836       0.000
 35.846       0.000
 35.856       0.000
 35.866       0.000
 35.876       0.000
 35.887       0.000
 35.897       0.000
 35.907       0.000
 35.917       0.000
 35.927       0.000
 35.937       0.000
 35.947       0.000
 35.957       0.000
 35.967       0.000
 35.977       0.000
 35.987       0.000
 35.997       0.000
 36.007       0.000
 36.017       0.000
 36.027       0.000
 36.037       0.000
 36.047       0.000
 36.057       0.000
 36.067       0.000
 36.077       0.000
 36.087       0.000
 36.097       0.000
 36.107       0.000
 36.117       0.000
 36.127       0.000
 36.137       0.000
 36.147       0.000
 36.157       0.000
 36.167       0.000
 36.177       0.000
 36.187       0.000
 36.197       0.000
 36.207       0.000
 36.217       0.000
 36.227       0.000
 36.237       0.000
 36.247       0.000
 36.257       0.000
 36.267       0.000
 36.277       0.000
 36.287       0.000
 36.297       0.000
 36.307       0.000
 36.317       0.000
 36.327       0.000
 36.337       0.000
 36.347       0.000
 36.357       0.000
 36.367       0.000
 36.377       0.000
 36.387       0.000
 36.397       0.000
 36.407       0.000
 36.417       0.000
 36.427       0.000
 36.438       0.000
 36.448       0.000
 36.458       0.000
 36.468       0.000
 36.478       0.000
 36.488       0.000
 36.498       0.000
 36.508       0.000
 36.518       0.000
 36.528       0.000
 36.538       0.000
 36.548       0.000
 36.558       0.000
 36.568       0.000
 36.578       0.000
 36.588       0.000
 36.598       0.000
 36.608       0.000
 36.618       0.000
 36.628       0.000
 36.638       0.000
 36.648       0.000
 36.658       0.000
 36.668       0.000
 36.678       0.000
 36.688       0.000
 36.698       0.000
 36.708       0.000
 36.718       0.000
 36.728       0.000
 36.738       0.000
 36.748       0.000
 36.758       0.000
 36.768       0.000
 36.778       0.000
 36.788       0.000
 36.798       0.000
 36.808       0.000
 36.818       0.000
 36.828       0.000
 36.838       0.000
 36.848       0.000
 36.858       0.000
 36.868       0.000
 36.878       0.000
 36.888       0.000
 36.898       0.000
 36.908       0.000
 36.918       0.000
 36.928       0.000
 36.938       0.000
 36.948       0.000
 36.958       0.000
 36.968       0.000
 36.978       0.000
 36.988       0.000
 36.999       0.000
 37.009       0.000
 37.019       0.000
 37.029       0.000
 37.039       0.000
 37.049       0.000
 37.059       0.000
 37.069       0.000
 37.079       0.000
 37.089       0.000
 37.099       0.000
 37.109       0.000
 37.119       0.000
 37.129       0.000
 37.139       0.000
 37.149       0.000
 37.159       0.000
 37.169       0.000
 37.179       0.000
 37.189       0.000
 37.199       0.000
 37.209       0.000
 37.219       0.000
 37.229       0.000
 37.239       0.000
 37.249       0.000
 37.259       0.000
 37.269       0.000
 37.279       0.000
 37.289       0.000
 37.299       0.000
 37.309       0.000
 37.319       0.000
 37.329       0.000
 37.339       0.000
 37.349       0.000
 37.359       0.000
 37.369       0.000
 37.379       0.000
 37.389       0.000
 37.399       0.000
 37.409       0.000
 37.419       0.000
 37.429       0.000
 37.439       0.000
 37.449       0.000
 37.459       0.000
 37.469       0.000
 37.479       0.000
 37.489       0.000
 37.499       0.000
 37.509       0.000
 37.519       0.000
 37.529       0.000
 37.539       0.000
 37.549       0.000
 37.560       0.000
 37.570       0.000
 37.580       0.000
 37.590       0.000
 37.600       0.000
 37.610       0.000
 37.620       0.000
 37.630       0.000
 37.640       0.000
 37.650       0.000
 37.660       0.000
 37.670       0.000
 37.680       0.000
 37.690       0.000
 37.700       0.000
 37.710       0.000
 37.720       0.000
 37.730       0.000
 37.740       0.000
 37.750       0.000
 37.760       0.000
 37.770       0.000
 37.780       0.000
 37.790       0.000
 37.800       0.000
 37.810       0.000
 37.820       0.000
 37.830       0.000
 37.840       0.000
 37.850       0.000
 37.860       0.000
 37.870       0.000
 37.880       0.000
 37.890       0.000
 37.900       0.000
 37.910       0.000
 37.920       0.000
 37.930       0.000
 37.940       0.000
 37.950       0.000
 37.960       0.000
 37.970       0.000
 37.980       0.000
 37.990      14.671
 38.000      15.295
 38.010      15.960
 38.020      16.669
 38.030      17.425
 38.040      18.235
 38.050      19.102
 38.060      20.033
 38.070      21.033
 38.080      22.111
 38.090      23.273
 38.100      24.528
 38.111      25.888
 38.121      27.365
 38.131      28.971
 38.141      30.722
 38.151      32.638
 38.161      34.737
 38.171      37.045
 38.181      39.591
 38.191      42.407
 38.201      45.535
 38.211      49.022
 38.221      52.922
 38.231      57.306
 38.241      62.256
 38.251      67.874
 38.261      74.284
 38.271      81.646
 38.281      90.150
 38.291     100.048
 38.301     111.658
 38.311     125.398
 38.321     141.817
 38.331     161.653
 38.341     185.923
 38.351     216.011
 38.361     253.921
 38.371     302.564
 38.381     366.304
 38.391     451.901
 38.401     570.243
 38.411     739.312
 38.421     990.490
 38.431    1380.042
 38.441    3139.937
 38.451    4341.585
 38.461    5371.175
 38.471    5944.473
 38.481    5886.063
 38.491    5214.396
 38.501    4132.858
 38.511    1874.011
 38.521    1297.095
 38.531     937.880
 38.541     704.454
 38.551     546.190
 38.561     434.742
 38.571     353.659
 38.581     292.999
 38.591     246.509
 38.601     210.168
 38.611     181.239
 38.621     157.851
 38.631     138.684
 38.641     122.787
 38.651     109.456
 38.661      98.176
 38.672      88.547
 38.682      80.263
 38.692      73.085
 38.702      66.825
 38.712      61.332
 38.722      56.489
 38.732      52.197
 38.742      48.374
 38.752      44.956
 38.762      41.887
 38.772      39.121
 38.782      36.619
 38.792      34.350
 38.802      32.285
 38.812      30.401
 38.822      28.676
 38.832      27.094
 38.842      25.639
 38.852      24.298
 38.862      23.060
 38.872      21.914
 38.882      20.851
 38.892      19.863
 38.902      18.944
 38.912      18.087
 38.922      17.287
 38.932      16.539
 38.942      15.839
 38.952      15.182
 38.962      14.565
 38.972       0.000
 38.982       0.000
 38.992       0.000
 39.002       0.000
 39.012       0.000
 39.022       0.000
 39.032       0.000
 39.042       0.000
 39.052       0.000
 39.062       0.000
 39.072       0.000
 39.082       0.000
 39.092       0.000
 39.102       0.000
 39.112       0.000
 39.122       0.000
 39.132       0.000
 39.142       0.000
 39.152       0.000
 39.162       0.000
 39.172       0.000
 39.182       0.000
 39.192       0.000
 39.202       0.000
 39.212       0.000
 39.223       0.000
 39.233       0.000
 39.243       0.000
 39.253       0.000
 39.263       0.000
 39.273       0.000
 39.283       0.000
 39.293       0.000
 39.303       0.000
 39.313       0.000
 39.323       0.000
 39.333       0.000
 39.343       0.000
 39.353       0.000
 39.363       0.000
 39.373       0.000
 39.383       0.000
 39.393       0.000
 39.403       0.000
 39.413       0.000
 39.423       0.000
 39.433       0.000
 39.443       0.000
 39.453       0.000
 39.463       0.000
 39.473       0.000
 39.483       0.000
 39.493       0.000
 39.503       0.000
 39.513       0.000
 39.523       0.000
 39.533       0.000
 39.543       0.000
 39.553       0.000
 39.563       0.000
 39.573       0.000
 39.583       0.000
 39.593       0.000
 39.603       0.000
 39.613       0.000
 39.623       0.000
 39.633       0.000
 39.643       0.000
 39.653       0.000
 39.663       0.000
 39.673       0.000
 39.683       0.000
 39.693       0.000
 39.703       0.000
 39.713       0.000
 39.723       0.000
 39.733       0.000
 39.743       0.000
 39.753       0.000
 39.763       0.000
 39.773       0.000
 39.784       0.000
 39.794       0.000
 39.804       0.000
 39.814       0.000
 39.824       0.000
 39.834       0.000
 39.844       0.000
 39.854       0.000
 39.864       0.000
 39.874       0.000
 39.884       0.000
 39.894       0.000
 39.904       0.000
 39.914       0.000
 39.924       0.000
 39.934       0.000
 39.944       0.000
 39.954       0.000
 39.964       0.000
 39.974       0.000
 39.984       0.000
 39.994       0.000
 40.004       0.000
 40.014       0.000
 40.024       0.000
 40.034       0.000
 40.044       0.000
 40.054       0.000
 40.064       0.000
 40.074       0.000
 40.084       0.000
 40.094       0.000
 40.104       0.000
 40.114       0.000
 40.124       0.000
 40.134       0.000
 40.144       0.000
 40.154       0.000
 40.164       0.000
 40.174       0.000
 40.184       0.000
 40.194       0.000
 40.204       0.000
 40.214       0.000
 40.224       0.000
 40.234       0.000
 40.244       0.000
 40.254       0.000
 40.264       0.000
 40.274       0.000
 40.284       0.000
 40.294       0.000
 40.304       0.000
 40.314       0.000
 40.324       0.000
 40.335       0.000
 40.345       0.000
 40.355       0.000
 40.365       0.000
 40.375       0.000
 40.385       0.000
 40.395       0.000
 40.405       0.000
 40.415       0.000
 40.425       0.000
 40.435       0.000
 40.445       0.000
 40.455       0.000
 40.465       0.000
 40.475       0.000
 40.485       0.000
 40.495       0.000
 40.505       0.000
 40.515       0.000
 40.525       0.000
 40.535       0.000
 40.545       0.000
 40.555       0.000
 40.565       0.000
 40.575       0.000
 40.585       0.000
 40.595       0.000
 40.605       0.000
 40.615       0.000
 40.625       0.000
 40.635       0.000
 40.645       0.000
 40.655       0.000
 40.665       0.000
 40.675       0.000
 40.685       0.000
 40.695       0.000
 40.705       0.000
 40.715       0.000
 40.725       0.000
 40.735       0.000
 40.745       0.000
 40.755       0.000
 40.765       0.000
 40.775       0.000
 40.785       0.000
 40.795       0.000
 40.805       0.000
 40.815       0.000
 40.825       0.000
 40.835       0.000
 40.845       0.000
 40.855       0.000
 40.865       0.000
 40.875       0.000
 40.885       0.000
 40.896       0.000
 40.906       0.000
 40.916       0.000
 40.926       0.000
 40.936       0.000
 40.946       0.000
 40.956       0.000
 40.966       0.000
 40.976       0.000
 40.986       0.000
 40.996       0.000
 41.006       0.000
 41.016       0.000
 41.026       0.000
 41.036       0.000
 41.046       0.000
 41.056       0.000
 41.066       0.000
 41.076       0.000
 41.086       0.000
 41.096       0.000
 41.106       0.000
 41.116       0.000
 41.126       0.000
 41.136       0.000
 41.146       0.000
 41.156       0.000
 41.166       0.000
 41.176       0.000
 41.186       0.000
 41.196       0.000
 41.206       0.000
 41.216       0.000
 41.226       0.000
 41.236       0.000
 41.246       0.000
 41.256       0.000
 41.266       0.000
 41.276       0.000
 41.286       0.000
 41.296       0.000
 41.306       0.000
 41.316       0.000
 41.326       0.000
 41.336       0.000
 41.346       0.000
 41.356       0.000
 41.366       0.000
 41.376       0.000
 41.386       0.000
 41.396       0.000
 41.406       0.000
 41.416       0.000
 41.426       0.000
 41.436       0.000
 41.447       0.000
 41.457       0.000
 41.467       0.000
 41.477       0.000
 41.487       0.000
 41.497       0.000
 41.507       0.000
 41.517       0.000
 41.527       0.000
 41.537       0.000
 41.547       0.000
 41.557       0.000
 41.567       0.000
 41.577       0.000
 41.587       0.000
 41.597       0.000
 41.607       0.000
 41.617       0.000
 41.627       0.000
 41.637       0.000
 41.647       0.000
 41.657       0.000
 41.667       0.000
 41.677       0.000
 41.687       0.000
 41.697       0.000
 41.707       0.000
 41.717       0.000
 41.727       0.000
 41.737       0.000
 41.747       0.000
 41.757       0.000
 41.767       0.000
 41.777       0.000
 41.787       0.000
 41.797       0.000
 41.807       0.000
 41.817       0.000
 41.827       0.000
 41.837       0.000
 41.847       0.000
 41.857       0.000
 41.867       0.000
 41.877       0.000
 41.887       0.000
 41.897       0.000
 41.907       0.000
 41.917       0.000
 41.927       0.000
 41.937       0.000
 41.947       0.000
 41.957       0.000
 41.967       0.000
 41.977       0.000
 41.987       0.000
 41.997       0.000
 42.008       0.000
 42.018       0.000
 42.028       0.000
 42.038       0.000
 42.048       0.000
 42.058       0.000
 42.068       0.000
 42.078       0.000
 42.088       0.000
 42.098       0.000
 42.108       0.000
 42.118       0.000
 42.128       0.000
 42.138       0.000
 42.148       0.000
 42.158       0.000
 42.168       0.000
 42.178       0.000
 42.188       0.000
 42.198       0.000
 42.208       0.000
 42.218       0.000
 42.228       0.000
 42.238       0.000
 42.248       0.000
 42.258       0.000
 42.268       0.000
 42.278       0.000
 42.288       0.000
 42.298       0.000
 42.308       0.000
 42.318       0.000
 42.328       0.000
 42.338       0.000
 42.348       0.000
 42.358       0.000
 42.368       0.000
 42.378       0.000
 42.388       0.000
 42.398       0.000
 42.408       0.000
 42.418       0.000
 42.428       0.000
 42.438       0.000
 42.448       0.000
 42.458       0.000
 42.468       0.000
 42.478       0.000
 42.488       0.000
 42.498       0.000
 42.508       0.000
 42.518       0.000
 42.528       0.000
 42.538       0.000
 42.548       0.000
 42.558       0.000
 42.569       0.000
 42.579       0.000
 42.589       0.000
 42.599       0.000
 42.609       0.000
 42.619       0.000
 42.629       0.000
 42.639       0.000
 42.649       0.000
 42.659       0.000
 42.669       0.000
 42.679       0.000
 42.689       0.000
 42.699       0.000
 42.709       0.000
 42.719       0.000
 42.729       0.000
 42.739       0.000
 42.749       0.000
 42.759       0.000
 42.769       0.000
 42.779       0.000
 42.789       0.000
 42.799       0.000
 42.809       0.000
 42.819       0.000
 42.829       0.000
 42.839       0.000
 42.849       0.000
 42.859       0.000
 42.869       0.000
 42.879       0.000
 42.889       0.000
 42.899       0.000
 42.909       0.000
 42.919       0.000
 42.929       0.000
 42.939       0.000
 42.949       0.000
 42.959       0.000
 42.969       0.000
 42.979       0.000
 42.989       0.000
 42.999       0.000
 43.009       0.000
 43.019       0.000
 43.029       0.000
 43.039       0.000
 43.049       0.000
 43.059       0.000
 43.069       0.000
 43.079       0.000
 43.089       0.000
 43.099       0.000
 43.109       0.000
 43.120       0.000
 43.130       0.000
 43.140       0.000
 43.150       0.000
 43.160       0.000
 43.170       0.000
 43.180       0.000
 43.190       0.000
 43.200       0.000
 43.210       0.000
 43.220       0.000
 43.230       0.000
 43.240       0.000
 43.250       0.000
 43.260       0.000
 43.270       0.000
 43.280       0.000
 43.290       0.000
 43.300       0.000
 43.310       0.000
 43.320       0.000
 43.330       0.000
 43.340       0.000
 43.350       0.000
 43.360       0.000
 43.370       0.000
 43.380       0.000
 43.390       0.000
 43.400       0.000
 43.410       0.000
 43.420       0.000
 43.430       0.000
 43.440       0.000
 43.450       0.000
 43.460       0.000
 43.470       0.000
 43.480       0.000
 43.490       0.000
 43.500       0.000
 43.510       0.000
 43.520       0.000
 43.530       0.000
 43.540       0.000
 43.550       0.000
 43.560       0.000
 43.570       0.000
 43.580       0.000
 43.590       0.000
 43.600       0.000
 43.610       0.000
 43.620       0.000
 43.630       0.000
 43.640       0.000
 43.650       0.000
 43.660       0.000
 43.670       0.000
 43.681       0.000
 43.691       0.000
 43.701       0.000
 43.711       0.000
 43.721       0.000
 43.731       0.000
 43.741       0.000
 43.751       0.000
 43.761       0.000
 43.771       0.000
 43.781       0.000
 43.791       0.000
 43.801       0.000
 43.811       0.000
 43.821       0.000
 43.831       0.000
 43.841       0.000
 43.851       0.000
 43.861       0.000
 43.871       0.000
 43.881       0.000
 43.891       0.000
 43.901       0.000
 43.911       0.000
 43.921       0.000
 43.931       0.000
 43.941       0.000
 43.951       0.000
 43.961       0.000
 43.971       0.000
 43.981       0.000
 43.991       0.000
 44.001       0.000
 44.011       0.000
 44.021       0.000
 44.031       0.000
 44.041       0.000
 44.051       0.000
 44.061       0.000
 44.071       0.000
 44.081       0.000
 44.091       0.000
 44.101       0.000
 44.111       0.000
 44.121       0.000
 44.131       0.000
 44.141       0.000
 44.151       0.000
 44.161       0.000
 44.171       0.000
 44.181       0.000
 44.191       0.000
 44.201       0.000
 44.211       0.000
 44.221       0.000
 44.232       0.000
 44.242       0.000
 44.252       0.000
 44.262       0.000
 44.272       0.000
 44.282       0.000
 44.292       0.000
 44.302       0.000
 44.312       0.000
 44.322       0.000
 44.332       0.000
 44.342       0.000
 44.352       0.000
 44.362       0.000
 44.372       0.000
 44.382       0.000
 44.392       0.000
 44.402       0.000
 44.412       0.000
 44.422       0.000
 44.432       0.000
 44.442       0.000
 44.452       0.000
 44.462       0.000
 44.472       0.000
 44.482       0.000
 44.492       0.000
 44.502       0.000
 44.512       0.000
 44.522       0.000
 44.532       0.000
 44.542       0.000
 44.552       0.000
 44.562       0.000
 44.572       0.000
 44.582       0.000
 44.592       0.000
 44.602       0.000
 44.612       0.000
 44.622       0.000
 44.632       0.000
 44.642       0.000
 44.652       0.000
 44.662       0.000
 44.672       0.000
 44.682       0.000
 44.692       0.000
 44.702       0.000
 44.712       0.000
 44.722       0.000
 44.732       0.000
 44.742       0.000
 44.752       0.000
 44.762       0.000
 44.772       0.000
 44.782       0.000
 44.793       0.000
 44.803       0.000
 44.813       0.000
 44.823       0.000
 44.833       0.000
 44.843       0.000
 44.853       0.000
 44.863       0.000
 44.873       0.000
 44.883       0.000
 44.893       0.000
 44.903       0.000
 44.913       0.000
 44.923       0.000
 44.933       0.000
 44.943       0.000
 44.953       0.000
 44.963       0.000
 44.973       0.000
 44.983       0.000
 44.993       0.000
 45.003       0.000
 45.013       0.000
 45.023       0.000
 45.033       0.000
 45.043       0.000
 45.053       0.000
 45.063       0.000
 45.073       0.000
 45.083       0.000
 45.093       0.000
 45.103       0.000
 45.113       0.000
 45.123       0.000
 45.133       0.000
 45.143       0.000
 45.153       0.000
 45.163       0.000
 45.173       0.000
 45.183       0.000
 45.193       0.000
 45.203       0.000
 45.213       0.000
 45.223       0.000
 45.233       0.000
 45.243       0.000
 45.253       0.000
 45.263       0.000
 45.273       0.000
 45.283       0.000
 45.293       0.000
 45.303       0.000
 45.313       0.000
 45.323       0.000
 45.333       0.000
 45.344       0.000
 45.354       0.000
 45.364       0.000
 45.374       0.000
 45.384       0.000
 45.394       0.000
 45.404       0.000
 45.414       0.000
 45.424       0.000
 45.434       0.000
 45.444       0.000
 45.454       0.000
 45.464       0.000
 45.474       0.000
 45.484       0.000
 45.494       0.000
 45.504       0.000
 45.514       0.000
 45.524       0.000
 45.534       0.000
 45.544       0.000
 45.554       0.000
 45.564       0.000
 45.574       0.000
 45.584       0.000
 45.594       0.000
 45.604       0.000
 45.614       0.000
 45.624       0.000
 45.634       0.000
 45.644       0.000
 45.654       0.000
 45.664       0.000
 45.674       0.000
 45.684       0.000
 45.694       0.000
 45.704       0.000
 45.714       0.000
 45.724       0.000
 45.734       0.000
 45.744       0.000
 45.754       0.000
 45.764       0.000
 45.774       0.000
 45.784       0.000
 45.794       0.000
 45.804       0.000
 45.814       0.000
 45.824       0.000
 45.834       0.000
 45.844       0.000
 45.854       0.000
 45.864       0.000
 45.874       0.000
 45.884       0.000
 45.894       0.000
 45.905       0.000
 45.915       0.000
 45.925       0.000
 45.935       0.000
 45.945       0.000
 45.955       0.000
 45.965       0.000
 45.975       0.000
 45.985       0.000
 45.995       0.000
 46.005       0.000
 46.015       0.000
 46.025       0.000
 46.035       0.000
 46.045       0.000
 46.055       0.000
 46.065       0.000
 46.075       0.000
 46.085       0.000
 46.095       0.000
 46.105       0.000
 46.115       0.000
 46.125       0.000
 46.135       0.000
 46.145       0.000
 46.155       0.000
 46.165       0.000
 46.175       0.000
 46.185       0.000
 46.195       0.000
 46.205       0.000
 46.215       0.000
 46.225       0.000
 46.235       0.000
 46.245       0.000
 46.255       0.000
 46.265       0.000
 46.275       0.000
 46.285       0.000
 46.295       0.000
 46.305       0.000
 46.315       0.000
 46.325       0.000
 46.335       3.727
 46.345       3.883
 46.355       4.049
 46.365       4.225
 46.375       4.414
 46.385       4.615
 46.395       4.830
 46.405       5.061
 46.415       5.309
 46.425       5.575
 46.435       5.862
 46.445       6.171
 46.456       6.506
 46.466       6.868
 46.476       7.262
 46.486       7.691
 46.496       8.158
 46.506       8.669
 46.516       9.230
 46.526       9.847
 46.536      10.528
 46.546      11.282
 46.556      12.119
 46.566      13.053
 46.576      14.099
 46.586      15.276
 46.596      16.606
 46.606      18.116
 46.616      19.842
 46.626      21.825
 46.636      24.119
 46.646      26.793
 46.656      29.934
 46.666      33.657
 46.676      38.117
 46.686      43.514
 46.696      50.130
 46.706      58.356
 46.716      68.754
 46.726      82.141
 46.736      99.764
 46.746     123.534
 46.756     156.569
 46.766     204.087
 46.776     275.207
 46.786     386.368
 46.796     881.166
 46.806    1194.459
 46.816    1448.614
 46.826    1571.815
 46.836    1525.870
 46.846    1325.261
 46.856    1029.799
 46.866     459.611
 46.876     320.712
 46.886     233.578
 46.896     176.516
 46.906     137.551
 46.916     109.942
 46.926      89.742
 46.936      74.569
 46.946      62.898
 46.956      53.741
 46.966      46.430
 46.976      40.505
 46.986      35.636
 46.996      31.591
 47.006      28.195
 47.017      25.315
 47.027      22.854
 47.037      20.733
 47.047      18.893
 47.057      17.286
 47.067      15.876
 47.077      14.631
 47.087      13.527
 47.097      12.543
 47.107      11.662
 47.117      10.870
 47.127      10.157
 47.137       9.511
 47.147       8.925
 47.157       8.391
 47.167       7.904
 47.177       7.458
 47.187       7.048
 47.197       6.672
 47.207       6.324
 47.217       6.003
 47.227       5.706
 47.237       5.431
 47.247       5.175
 47.257       4.936
 47.267       4.714
 47.277       4.506
 47.287       4.312
 47.297       4.130
 47.307       3.959
 47.317       3.799
 47.327       0.000
 47.337       0.000
 47.347       0.000
 47.357       0.000
 47.367       0.000
 47.377       0.000
 47.387       0.000
 47.397       0.000
 47.407       0.000
 47.417       0.000
 47.427       0.000
 47.437       0.000
 47.447       0.000
 47.457       0.000
 47.467       0.000
 47.477       0.000
 47.487       0.000
 47.497       0.000
 47.507       0.000
 47.517       0.000
 47.527       0.000
 47.537       0.000
 47.547       0.000
 47.557       0.000
 47.568       0.000
 47.578       0.000
 47.588       0.000
 47.598       0.000
 47.608       0.000
 47.618       0.000
 47.628       0.000
 47.638       0.000
 47.648       0.000
 47.658       0.000
 47.668       0.000
 47.678       0.000
 47.688       0.000
 47.698       0.000
 47.708       0.000
 47.718       0.000
 47.728       0.000
 47.738       0.000
 47.748       0.000
 47.758       0.000
 47.768       0.000
 47.778       0.000
 47.788       0.000
 47.798       0.000
 47.808       0.000
 47.818       0.000
 47.828       0.000
 47.838       0.000
 47.848       0.000
 47.858       0.000
 47.868       0.000
 47.878       0.000
 47.888       0.000
 47.898       0.000
 47.908       0.000
 47.918       0.000
 47.928       0.000
 47.938       0.000
 47.948       0.000
 47.958       0.000
 47.968       0.000
 47.978       0.000
 47.988       0.000
 47.998       0.000
 48.008       0.000
 48.018       0.000
 48.028       0.000
 48.038       0.000
 48.048       0.000
 48.058       0.000
 48.068       0.000
 48.078       0.000
 48.088       0.000
 48.098       0.000
 48.108       0.000
 48.118       0.000
 48.129       0.000
 48.139       0.000
 48.149       0.000
 48.159       0.000
 48.169       0.000
 48.179       0.000
 48.189       0.000
 48.199       0.000
 48.209       0.000
 48.219       0.000
 48.229       0.000
 48.239       0.000
 48.249       0.000
 48.259       0.000
 48.269       0.000
 48.279       0.000
 48.289       0.000
 48.299       0.000
 48.309       0.000
 48.319       0.000
 48.329       0.000
 48.339       0.000
 48.349       0.000
 48.359       0.000
 48.369       0.000
 48.379       0.000
 48.389       0.000
 48.399       0.000
 48.409       0.000
 48.419       0.000
 48.429       0.000
 48.439       0.000
 48.449       0.000
 48.459       0.000
 48.469       0.000
 48.479       0.000
 48.489       0.000
 48.499       0.000
 48.509       0.000
 48.519       0.000
 48.529       0.000
 48.539       0.000
 48.549       0.000
 48.559       0.000
 48.569       0.000
 48.579       0.000
 48.589       0.000
 48.599       0.000
 48.609       0.000
 48.619       0.000
 48.629       0.000
 48.639       0.000
 48.649       0.000
 48.659       0.000
 48.669       0.000
 48.679       0.000
 48.690       0.000
 48.700       0.000
 48.710       0.000
 48.720       0.000
 48.730       0.000
 48.740       0.000
 48.750       0.000
 48.760       0.000
 48.770       0.000
 48.780       0.000
 48.790       0.000
 48.800       0.000
 48.810       0.000
 48.820       0.000
 48.830       0.000
 48.840       0.000
 48.850       0.000
 48.860       0.000
 48.870       0.000
 48.880       0.000
 48.890       0.000
 48.900       0.000
 48.910       0.000
 48.920       0.000
 48.930       0.000
 48.940       0.000
 48.950       0.000
 48.960       0.000
 48.970       0.000
 48.980       0.000
 48.990       0.000
 49.000       0.000
 49.010       0.000
 49.020       0.000
 49.030       0.000
 49.040       0.000
 49.050       0.000
 49.060       0.000
 49.070       0.000
 49.080       0.000
 49.090       0.000
 49.100       0.000
 49.110       0.000
 49.120       0.000
 49.130       0.000
 49.140       0.000
 49.150       0.000
 49.160       0.000
 49.170       0.000
 49.180       0.000
 49.190       0.000
 49.200       0.000
 49.210       0.000
 49.220       0.000
 49.230       0.000
 49.241       0.000
 49.251       0.000
 49.261       0.000
 49.271       0.000
 49.281       0.000
 49.291       0.000
 49.301       0.000
 49.311       0.000
 49.321       0.000
 49.331       0.000
 49.341       0.000
 49.351       0.000
 49.361       0.000
 49.371       0.000
 49.381       0.000
 49.391       0.000
 49.401       0.000
 49.411       0.000
 49.421       0.000
 49.431       0.000
 49.441       0.000
 49.451       0.000
 49.461       0.000
 49.471       0.000
 49.481       0.000
 49.491       0.000
 49.501       0.000
 49.511       0.000
 49.521       0.000
 49.531       0.000
 49.541       0.000
 49.551       0.000
 49.561       0.000
 49.571       0.000
 49.581       0.000
 49.591       0.000
 49.601       0.000
 49.611       0.000
 49.621       0.000
 49.631       0.000
 49.641       0.000
 49.651       0.000
 49.661       0.000
 49.671       0.000
 49.681       0.000
 49.691       0.000
 49.701       0.000
 49.711       0.000
 49.721       0.000
 49.731       0.000
 49.741       0.000
 49.751       0.000
 49.761       0.000
 49.771       0.000
 49.781       0.000
 49.791       0.000
 49.802       0.000
 49.812       0.000
 49.822       0.000
 49.832       0.000
 49.842       0.000
 49.852       0.000
 49.862       0.000
 49.872       0.000
 49.882       0.000
 49.892       0.000
 49.902       0.000
 49.912       0.000
 49.922       0.000
 49.932       0.000
 49.942       0.000
 49.952       0.000
 49.962       0.000
 49.972       0.000
 49.982       0.000
 49.992       0.000
 50.002       0.000
 50.012       0.000
 50.022       0.000
 50.032       0.000
 50.042       0.000
 50.052       0.000
 50.062       0.000
 50.072       0.000
 50.082       0.000
 50.092       0.000
 50.102       0.000
 50.112       0.000
 50.122       0.000
 50.132       0.000
 50.142       0.000
 50.152       0.000
 50.162       0.000
 50.172       0.000
 50.182       0.000
 50.192       0.000
 50.202       0.000
 50.212       0.000
 50.222       0.000
 50.232       0.000
 50.242       0.000
 50.252       0.000
 50.262       0.000
 50.272       0.000
 50.282       0.000
 50.292       0.000
 50.302       0.000
 50.312       0.000
 50.322       0.000
 50.332       0.000
 50.342       0.000
 50.353       0.000
 50.363       0.000
 50.373       0.000
 50.383       0.000
 50.393       0.000
 50.403       0.000
 50.413       0.000
 50.423       0.000
 50.433       0.000
 50.443       0.000
 50.453       0.000
 50.463       0.000
 50.473       0.000
 50.483       0.000
 50.493       0.000
 50.503       0.000
 50.513       0.000
 50.523       0.000
 50.533       0.000
 50.543       0.000
 50.553       0.000
 50.563       0.000
 50.573       0.000
 50.583       0.000
 50.593       0.000
 50.603       0.000
 50.613       0.000
 50.623       0.000
 50.633       0.000
 50.643       0.000
 50.653       0.000
 50.663       0.000
 50.673       0.000
 50.683       0.000
 50.693       0.000
 50.703       0.000
 50.713       0.000
 50.723       0.000
 50.733       0.000
 50.743       0.000
 50.753       0.000
 50.763       0.000
 50.773       0.000
 50.783       0.000
 50.793       0.000
 50.803       0.000
 50.813       0.000
 50.823       0.000
 50.833       5.719
 50.843       5.961
 50.853       6.219
 50.863       6.495
 50.873       6.788
 50.883       7.103
 50.893       7.439
 50.903       7.800
 50.914       8.188
 50.924       8.605
 50.934       9.055
 50.944       9.542
 50.954      10.068
 50.964      10.639
 50.974      11.261
 50.984      11.938
 50.994      12.678
 51.004      13.489
 51.014      14.380
 51.024      15.363
 51.034      16.449
 51.044      17.655
 51.054      18.998
 51.064      20.499
 51.074      22.185
 51.084      24.087
 51.094      26.245
 51.104      28.703
 51.114      31.523
 51.124      34.777
 51.134      38.560
 51.144      42.991
 51.154      48.226
 51.164      54.473
 51.174      62.003
 51.184      71.192
 51.194      82.559
 51.204      96.839
 51.214     115.100
 51.224     138.946
 51.234     170.814
 51.244     214.620
 51.254     276.836
 51.264     368.612
 51.274     509.865
 51.284     736.753
 51.294    1624.232
 51.304    2048.500
 51.314    2311.486
 51.324    2333.534
 51.334    2107.678
 51.344    1703.012
 51.354    1231.188
 51.364     541.172
 51.374     388.469
 51.384     289.993
 51.394     223.699
 51.404     177.305
 51.414     143.719
 51.424     118.717
 51.434      99.636
 51.444      84.764
 51.454      72.960
 51.465      63.441
 51.475      55.655
 51.485      49.213
 51.495      43.822
 51.505      39.266
 51.515      35.382
 51.525      32.045
 51.535      29.156
 51.545      26.640
 51.555      24.436
 51.565      22.493
 51.575      20.773
 51.585      19.242
 51.595      17.874
 51.605      16.646
 51.615      15.540
 51.625      14.541
 51.635      13.635
 51.645      12.811
 51.655      12.060
 51.665      11.372
 51.675      10.742
 51.685      10.162
 51.695       9.629
 51.705       9.136
 51.715       8.680
 51.725       8.257
 51.735       7.864
 51.745       7.499
 51.755       7.158
 51.765       6.840
 51.775       6.543
 51.785       6.265
 51.795       6.004
 51.805       5.759
 51.815       0.000
 51.825       0.000
 51.835       0.000
 51.845       0.000
 51.855       0.000
 51.865       0.000
 51.875       0.000
 51.885       0.000
 51.895       0.000
 51.905       0.000
 51.915       0.000
 51.925       0.000
 51.935       0.000
 51.945       0.000
 51.955       0.000
 51.965       0.000
 51.975       0.000
 51.985       0.000
 51.995       0.000
 52.005       0.000
 52.015       0.000
 52.026       0.000
 52.036       0.000
 52.046       0.000
 52.056       0.000
 52.066       0.000
 52.076       0.000
 52.086       0.000
 52.096       0.000
 52.106       0.000
 52.116       0.000
 52.126       0.000
 52.136       0.000
 52.146       0.000
 52.156       0.000
 52.166       0.000
 52.176       0.000
 52.186       0.000
 52.196       0.000
 52.206       0.000
 52.216       0.000
 52.226       0.000
 52.236       0.000
 52.246       0.000
 52.256       0.000
 52.266       0.000
 52.276       0.000
 52.286       0.000
 52.296       0.000
 52.306       0.000
 52.316       0.000
 52.326       0.000
 52.336       0.000
 52.346       0.000
 52.356       0.000
 52.366       0.000
 52.376       0.000
 52.386       0.000
 52.396       0.000
 52.406       0.000
 52.416       0.000
 52.426       0.000
 52.436       0.000
 52.446       0.000
 52.456       0.000
 52.466       0.000
 52.476       0.000
 52.486       0.000
 52.496       0.000
 52.506       0.000
 52.516       0.000
 52.526       0.000
 52.536       0.000
 52.546       0.000
 52.556       0.000
 52.566       0.000
 52.576       0.000
 52.587       0.000
 52.597       0.000
 52.607       0.000
 52.617       0.000
 52.627       0.000
 52.637       0.000
 52.647       0.000
 52.657       0.000
 52.667       0.000
 52.677       0.000
 52.687       0.000
 52.697       0.000
 52.707       0.000
 52.717       0.000
 52.727       0.000
 52.737       0.000
 52.747       0.000
 52.757       0.000
 52.767       0.000
 52.777       0.000
 52.787       0.000
 52.797       0.000
 52.807       0.000
 52.817       0.000
 52.827       0.000
 52.837       0.000
 52.847       0.000
 52.857       0.000
 52.867       0.000
 52.877       0.000
 52.887       0.000
 52.897       0.000
 52.907       0.000
 52.917       0.000
 52.927       0.000
 52.937       0.000
 52.947       0.000
 52.957       0.000
 52.967       0.000
 52.977       0.000
 52.987       0.000
 52.997       0.000
 53.007       0.000
 53.017       0.000
 53.027       0.000
 53.037       0.000
 53.047       0.000
 53.057       0.000
 53.067       0.000
 53.077       0.000
 53.087       0.000
 53.097       0.000
 53.107       0.000
 53.117       0.000
 53.127       0.000
 53.138       0.000
 53.148       0.000
 53.158       0.000
 53.168       0.000
 53.178       0.000
 53.188       0.000
 53.198       0.000
 53.208       0.000
 53.218       0.000
 53.228       0.000
 53.238       0.000
 53.248       0.000
 53.258       0.000
 53.268       0.000
 53.278       0.000
 53.288       0.000
 53.298       0.000
 53.308       0.000
 53.318       0.000
 53.328       0.000
 53.338       0.000
 53.348       0.000
 53.358       0.000
 53.368       0.000
 53.378       0.000
 53.388       0.000
 53.398       0.000
 53.408       0.000
 53.418       0.000
 53.428       0.000
 53.438       0.000
 53.448       0.000
 53.458       0.000
 53.468       0.000
 53.478       0.000
 53.488       0.000
 53.498       0.000
 53.508       0.000
 53.518       0.000
 53.528       0.000
 53.538       0.000
 53.548       0.000
 53.558       0.000
 53.568       0.000
 53.578       0.000
 53.588       0.000
 53.598       0.000
 53.608       0.000
 53.618       0.000
 53.628       0.000
 53.638       0.000
 53.648       0.000
 53.658       0.000
 53.668       0.000
 53.678       0.000
 53.688       0.000
 53.699       0.000
 53.709       0.000
 53.719       0.000
 53.729       0.000
 53.739       0.000
 53.749       0.000
 53.759       0.000
 53.769       0.000
 53.779       0.000
 53.789       0.000
 53.799       0.000
 53.809       0.000
 53.819       0.000
 53.829       0.000
 53.839       0.000
 53.849       0.000
 53.859       0.000
 53.869       0.000
 53.879       0.000
 53.889       0.000
 53.899       0.000
 53.909       0.000
 53.919       0.000
 53.929       0.000
 53.939       0.000
 53.949       0.000
 53.959       0.000
 53.969       0.000
 53.979       0.000
 53.989       0.000
 53.999       0.000
 54.009       0.000
 54.019       0.000
 54.029       0.000
 54.039       0.000
 54.049       0.000
 54.059       0.000
 54.069       0.000
 54.079       0.000
 54.089       0.000
 54.099       0.000
 54.109       0.000
 54.119       0.000
 54.129       0.000
 54.139       0.000
 54.149       0.000
 54.159       0.000
 54.169       0.000
 54.179       0.000
 54.189       0.000
 54.199       0.000
 54.209       0.000
 54.219       0.000
 54.229       0.000
 54.239       0.000
 54.250       0.000
 54.260       0.000
 54.270       0.000
 54.280       0.000
 54.290       0.000
 54.300       0.000
 54.310       0.000
 54.320       0.000
 54.330       0.000
 54.340       0.000
 54.350       0.000
 54.360       0.000
 54.370       0.000
 54.380       0.000
 54.390       0.000
 54.400       0.000
 54.410       0.000
 54.420       0.000
 54.430       0.000
 54.440       0.000
 54.450       0.000
 54.460       0.000
 54.470       0.000
 54.480       0.000
 54.490       0.000
 54.500       0.000
 54.510       0.000
 54.520       0.000
 54.530       0.000
 54.540       0.000
 54.550       0.000
 54.560       0.000
 54.570       0.000
 54.580       0.000
 54.590       0.000
 54.600       0.000
 54.610       0.000
 54.620       0.000
 54.630       0.000
 54.640       0.000
 54.650       0.000
 54.660       0.000
 54.670       0.000
 54.680       0.000
 54.690       0.000
 54.700       0.000
 54.710       0.000
 54.720       0.000
 54.730       0.000
 54.740       0.000
 54.750       0.000
 54.760       0.000
 54.770       0.000
 54.780       0.000
 54.790       0.000
 54.800       0.000
 54.811       0.000
 54.821       0.000
 54.831       0.000
 54.841       0.000
 54.851       0.000
 54.861       0.000
 54.871       0.000
 54.881       0.000
 54.891       0.000
 54.901       0.000
 54.911       0.000
 54.921       0.000
 54.931       0.000
 54.941       0.000
 54.951       0.000
 54.961       0.000
 54.971       0.000
 54.981       0.000
 54.991       0.000
 55.001       0.000
 55.011       0.000
 55.021       0.000
 55.031       0.000
 55.041       0.000
 55.051       0.000
 55.061       0.000
 55.071       0.000
 55.081       0.000
 55.091       0.000
 55.101       0.000
 55.111       0.000
 55.121       0.000
 55.131       0.000
 55.141       0.000
 55.151       0.000
 55.161       0.000
 55.171       0.000
 55.181       0.000
 55.191       0.000
 55.201       0.000
 55.211       0.000
 55.221       0.000
 55.231       0.000
 55.241       0.000
 55.251       0.000
 55.261       0.000
 55.271       0.000
 55.281       0.000
 55.291       0.000
 55.301       0.000
 55.311       0.000
 55.321       0.000
 55.331       0.000
 55.341       0.000
 55.351       0.000
 55.362       0.000
 55.372       0.000
 55.382       0.000
 55.392       0.000
 55.402       0.000
 55.412       0.000
 55.422       0.000
 55.432       0.000
 55.442       0.000
 55.452       0.000
 55.462       0.000
 55.472       0.000
 55.482       0.000
 55.492       0.000
 55.502       0.000
 55.512       0.000
 55.522       0.000
 55.532       0.000
 55.542       0.000
 55.552       0.000
 55.562       0.000
 55.572       0.000
 55.582       0.000
 55.592       0.000
 55.602       0.000
 55.612       0.000
 55.622       0.000
 55.632       0.000
 55.642       0.000
 55.652       0.000
 55.662       0.000
 55.672       0.000
 55.682       0.000
 55.692       0.000
 55.702       0.000
 55.712       0.000
 55.722       0.000
 55.732       0.000
 55.742       0.000
 55.752       0.000
 55.762       0.000
 55.772       0.000
 55.782       0.000
 55.792       0.000
 55.802       0.000
 55.812       0.000
 55.822       0.000
 55.832       0.000
 55.842       0.000
 55.852       0.000
 55.862       0.000
 55.872       0.000
 55.882       0.000
 55.892       0.000
 55.902       0.000
 55.912       0.000
 55.923       0.000
 55.933       0.000
 55.943       0.000
 55.953       0.000
 55.963       0.000
 55.973       0.000
 55.983       0.000
 55.993       0.000
 56.003       0.000
 56.013       0.000
 56.023       0.000
 56.033       0.000
 56.043       0.000
 56.053       0.000
 56.063       0.000
 56.073       0.000
 56.083       0.000
 56.093       0.000
 56.103       0.000
 56.113       0.000
 56.123       0.000
 56.133       0.000
 56.143       0.000
 56.153       0.000
 56.163       0.000
 56.173       0.000
 56.183       0.000
 56.193       0.000
 56.203       0.000
 56.213       0.000
 56.223       0.000
 56.233       0.000
 56.243       0.000
 56.253       0.000
 56.263       0.000
 56.273       0.000
 56.283       0.000
 56.293       0.000
 56.303       0.000
 56.313       0.000
 56.323       0.000
 56.333       0.000
 56.343       0.000
 56.353       0.000
 56.363       0.000
 56.373       0.000
 56.383       0.000
 56.393       0.000
 56.403       0.000
 56.413       0.000
 56.423       0.000
 56.433       0.000
 56.443       0.000
 56.453       0.000
 56.463       0.000
 56.474       0.000
 56.484       0.000
 56.494       0.000
 56.504       0.000
 56.514       0.000
 56.524       0.000
 56.534       0.000
 56.544       0.000
 56.554       0.000
 56.564       0.000
 56.574       0.000
 56.584       0.000
 56.594       0.000
 56.604       0.000
 56.614       0.000
 56.624       0.000
 56.634       0.000
 56.644       0.000
 56.654       0.000
 56.664       0.000
 56.674       0.000
 56.684       0.000
 56.694       0.000
 56.704       0.000
 56.714       0.000
 56.724       0.000
 56.734       0.000
 56.744       0.000
 56.754       0.000
 56.764       0.000
 56.774       0.000
 56.784       0.000
 56.794       0.000
 56.804       0.000
 56.814       0.000
 56.824       0.000
 56.834       0.000
 56.844       0.000
 56.854       0.000
 56.864       0.000
 56.874       0.000
 56.884       0.000
 56.894       0.000
 56.904       0.000
 56.914       0.000
 56.924       0.000
 56.934       0.000
 56.944       0.000
 56.954       0.000
 56.964       0.000
 56.974       0.000
 56.984       0.000
 56.994       0.000
 57.004       0.000
 57.014       0.000
 57.024       0.000
 57.035       0.000
 57.045       0.000
 57.055       0.000
 57.065       0.000
 57.075       0.000
 57.085       0.000
 57.095       0.000
 57.105       0.000
 57.115       0.000
 57.125       0.000
 57.135       0.000
 57.145       0.000
 57.155       0.000
 57.165       0.000
 57.175       0.000
 57.185       0.000
 57.195       0.000
 57.205       0.000
 57.215       0.000
 57.225       0.000
 57.235       0.000
 57.245       0.000
 57.255       0.000
 57.265       0.000
 57.275       0.000
 57.285       0.000
 57.295       0.000
 57.305       0.000
 57.315       0.000
 57.325       0.000
 57.335       0.000
 57.345       0.000
 57.355       0.000
 57.365       0.000
 57.375       0.000
 57.385       0.000
 57.395       0.000
 57.405       0.000
 57.415       0.000
 57.425       0.000
 57.435       0.000
 57.445       0.000
 57.455       0.000
 57.465       0.000
 57.475       0.000
 57.485       0.000
 57.495       0.000
 57.505       0.000
 57.515       0.000
 57.525       0.000
 57.535       0.000
 57.545       0.000
 57.555       0.000
 57.565       0.000
 57.575       0.000
 57.585       0.000
 57.596       0.000
 57.606       0.000
 57.616       0.000
 57.626       0.000
 57.636       0.000
 57.646       0.000
 57.656       0.000
 57.666       0.000
 57.676       0.000
 57.686       0.000
 57.696       0.000
 57.706       0.000
 57.716       0.000
 57.726       0.000
 57.736       0.000
 57.746       0.000
 57.756       7.550
 57.766       7.867
 57.776       8.205
 57.786       8.566
 57.796       8.951
 57.806       9.362
 57.816       9.802
 57.826      10.274
 57.836      10.780
 57.846      11.325
 57.856      11.913
 57.866      12.547
 57.876      13.234
 57.886      13.978
 57.896      14.786
 57.906      15.667
 57.916      16.629
 57.926      17.682
 57.936      18.837
 57.946      20.110
 57.956      21.516
 57.966      23.075
 57.976      24.808
 57.986      26.745
 57.996      28.916
 58.006      31.361
 58.016      34.129
 58.026      37.280
 58.036      40.885
 58.046      45.039
 58.056      49.854
 58.066      55.479
 58.076      62.107
 58.086      69.987
 58.096      79.455
 58.106      90.966
 58.116     105.134
 58.126     122.841
 58.136     145.348
 58.147     174.522
 58.157     213.206
 58.167     265.900
 58.177     339.883
 58.187     447.622
 58.197     611.118
 58.207     870.218
 58.217    1967.305
 58.227    2572.524
 58.237    3009.756
 58.247    3150.180
 58.257    2949.899
 58.267    2471.418
 58.277    1852.477
 58.287     813.844
 58.297     576.018
 58.307     424.866
 58.317     324.488
 58.327     255.079
 58.337     205.364
 58.347     168.665
 58.357     140.857
 58.367     119.333
 58.377     102.345
 58.387      88.713
 58.397      77.614
 58.407      68.462
 58.417      60.829
 58.427      54.396
 58.437      48.929
 58.447      44.244
 58.457      40.198
 58.467      36.681
 58.477      33.605
 58.487      30.897
 58.497      28.505
 58.507      26.379
 58.517      24.482
 58.527      22.782
 58.537      21.252
 58.547      19.871
 58.557      18.621
 58.567      17.484
 58.577      16.449
 58.587      15.503
 58.597      14.635
 58.607      13.839
 58.617      13.106
 58.627      12.429
 58.637      11.804
 58.647      11.224
 58.657      10.686
 58.667      10.186
 58.677       9.720
 58.687       9.285
 58.697       8.879
 58.708       8.499
 58.718       8.143
 58.728       7.809
 58.738       7.494
 58.748       0.000
 58.758       0.000
 58.768       0.000
 58.778       0.000
 58.788       0.000
 58.798       0.000
 58.808       0.000
 58.818       0.000
 58.828       0.000
 58.838       0.000
 58.848       0.000
 58.858       0.000
 58.868       0.000
 58.878       0.000
 58.888       0.000
 58.898       0.000
 58.908       0.000
 58.918       0.000
 58.928       0.000
 58.938       0.000
 58.948       0.000
 58.958       0.000
 58.968       0.000
 58.978       0.000
 58.988       0.000
 58.998       0.000
 59.008       0.000
 59.018       0.000
 59.028       0.000
 59.038       0.000
 59.048       0.000
 59.058       0.000
 59.068       0.000
 59.078       0.000
 59.088       0.000
 59.098       0.000
 59.108       0.000
 59.118       0.000
 59.128       0.000
 59.138       0.000
 59.148       0.000
 59.158       0.000
 59.168       0.000
 59.178       0.000
 59.188       0.000
 59.198       0.000
 59.208       0.000
 59.218       0.000
 59.228       0.000
 59.238       0.000
 59.248       0.000
 59.259       0.000
 59.269       0.000
 59.279       0.000
 59.289       0.000
 59.299       0.000
 59.309       0.000
 59.319       0.000
 59.329       0.000
 59.339       0.000
 59.349       0.000
 59.359       0.000
 59.369       0.000
 59.379       0.000
 59.389       0.000
 59.399       0.000
 59.409       0.000
 59.419       0.000
 59.429       0.000
 59.439       0.000
 59.449       0.000
 59.459       0.000
 59.469       0.000
 59.479       0.000
 59.489       0.000
 59.499       0.000
 59.509       0.000
 59.519       0.000
 59.529       0.000
 59.539       0.000
 59.549       0.000
 59.559       0.000
 59.569       0.000
 59.579       0.000
 59.589       0.000
 59.599       0.000
 59.609       0.000
 59.619       0.000
 59.629       0.000
 59.639       0.000
 59.649       0.000
 59.659       0.000
 59.669       0.000
 59.679       0.000
 59.689       0.000
 59.699       0.000
 59.709       0.000
 59.719       0.000
 59.729       0.000
 59.739       0.000
 59.749       0.000
 59.759       0.000
 59.769       0.000
 59.779       0.000
 59.789       0.000
 59.799       0.000
 59.809       0.000
 59.820       0.000
 59.830       0.000
 59.840       0.000
 59.850       0.000
 59.860       0.000
 59.870       0.000
 59.880       0.000
 59.890       0.000
 59.900       0.000
 59.910       0.000
 59.920       0.000
 59.930       0.000
 59.940       0.000
 59.950       0.000
 59.960       0.000
 59.970       0.000
 59.980       0.000
 59.990       0.000
 60.000       0.000
 60.010       0.000
 60.020       0.000
 60.030       0.000
 60.040       0.000
 60.050       0.000
 60.060       0.000
 60.070       0.000
 60.080       0.000
 60.090       0.000
 60.100       0.000
 60.110       0.000
 60.120       0.000
 60.130       0.000
 60.140       0.000
 60.150       0.000
 60.160       0.000
 60.170       0.000
 60.180       0.000
 60.190       0.000
 60.200       0.000
 60.210       0.000
 60.220       0.000
 60.230       0.000
 60.240       0.000
 60.250       0.000
 60.260       0.000
 60.270       0.000
 60.280       0.000
 60.290       0.000
 60.300       0.000
 60.310       0.000
 60.320       0.000
 60.330       0.000
 60.340       0.000
 60.350       0.000
 60.360       0.000
 60.371       0.000
 60.381       0.000
 60.391       0.000
 60.401       0.000
 60.411       0.000
 60.421       0.000
 60.431       0.000
 60.441       0.000
 60.451       0.000
 60.461       0.000
 60.471       0.000
 60.481       0.000
 60.491       0.000
 60.501       0.000
 60.511       0.000
 60.521       0.000
 60.531       0.000
 60.541       0.000
 60.551       0.000
 60.561       0.000
 60.571       0.000
 60.581       0.000
 60.591       0.000
 60.601       0.000
 60.611       0.000
 60.621       0.000
 60.631       0.000
 60.641       0.000
 60.651       0.000
 60.661       0.000
 60.671       0.000
 60.681       0.000
 60.691       0.000
 60.701       0.000
 60.711       0.000
 60.721       0.000
 60.731       0.000
 60.741       0.000
 60.751       0.000
 60.761       0.000
 60.771       0.000
 60.781       0.000
 60.791       0.000
 60.801       0.000
 60.811       0.000
 60.821       0.000
 60.831       0.000
 60.841       0.000
 60.851       0.000
 60.861       0.000
 60.871       0.000
 60.881       0.000
 60.891       0.000
 60.901       0.000
 60.911       0.000
 60.921       0.000
 60.932       0.000
 60.942       0.000
 60.952       0.000
 60.962       0.000
 60.972       0.000
 60.982       0.000
 60.992       0.000
 61.002       0.000
 61.012       0.000
 61.022       0.000
 61.032       0.000
 61.042       0.000
 61.052       0.000
 61.062       0.000
 61.072       0.000
 61.082       0.000
 61.092       0.000
 61.102       0.000
 61.112       0.000
 61.122       0.000
 61.132       0.000
 61.142       0.000
 61.152       0.000
 61.162       0.000
 61.172       0.000
 61.182       0.000
 61.192       0.000
 61.202       0.000
 61.212       0.000
 61.222       0.000
 61.232       0.000
 61.242       0.000
 61.252       0.000
 61.262       0.000
 61.272       0.000
 61.282       0.000
 61.292       0.000
 61.302       0.000
 61.312       0.000
 61.322       0.000
 61.332       0.000
 61.342       0.000
 61.352       0.000
 61.362       0.000
 61.372       0.000
 61.382       0.000
 61.392       0.000
 61.402       0.000
 61.412       0.000
 61.422       0.000
 61.432       0.000
 61.442       0.000
 61.452       0.000
 61.462       0.000
 61.472       0.000
 61.483       0.000
 61.493       0.000
 61.503       0.000
 61.513       0.000
 61.523       0.000
 61.533       0.000
 61.543       0.000
 61.553       0.000
 61.563       0.000
 61.573       0.000
 61.583       0.000
 61.593       0.000
 61.603       0.000
 61.613       0.000
 61.623       0.000
 61.633       0.000
 61.643       0.000
 61.653       0.000
 61.663       4.034
 61.673       4.203
 61.683       4.382
 61.693       4.573
 61.703       4.777
 61.713       4.994
 61.723       5.227
 61.733       5.477
 61.743       5.745
 61.753       6.032
 61.763       6.343
 61.773       6.677
 61.783       7.039
 61.793       7.431
 61.803       7.857
 61.813       8.320
 61.823       8.825
 61.833       9.378
 61.843       9.984
 61.853      10.651
 61.863      11.386
 61.873      12.201
 61.883      13.106
 61.893      14.115
 61.903      15.245
 61.913      16.516
 61.923      17.952
 61.933      19.582
 61.943      21.445
 61.953      23.586
 61.963      26.062
 61.973      28.947
 61.983      32.336
 61.993      36.352
 62.003      41.158
 62.013      46.975
 62.023      54.107
 62.033      62.968
 62.044      74.162
 62.054      88.569
 62.064     107.513
 62.074     133.056
 62.084     168.539
 62.094     219.515
 62.104     295.729
 62.114     414.715
 62.124     945.669
 62.134    1285.651
 62.144    1563.775
 62.154    1701.758
 62.164    1656.783
 62.174    1443.115
 62.184    1124.614
 62.194     502.996
 62.204     350.573
 62.214     255.028
 62.224     192.557
 62.234     149.943
 62.244     119.775
 62.254      97.727
 62.264      81.168
 62.274      68.436
 62.284      58.454
 62.294      50.488
 62.304      44.035
 62.314      38.736
 62.324      34.333
 62.334      30.636
 62.344      27.502
 62.354      24.825
 62.364      22.518
 62.374      20.518
 62.384      18.772
 62.394      17.239
 62.404      15.885
 62.414      14.685
 62.424      13.615
 62.434      12.658
 62.444      11.799
 62.454      11.023
 62.464      10.322
 62.474       9.685
 62.484       9.105
 62.494       8.576
 62.504       8.092
 62.514       7.647
 62.524       7.238
 62.534       6.861
 62.544       6.513
 62.554       6.190
 62.564       5.891
 62.574       5.613
 62.584       5.355
 62.595       5.113
 62.605       4.888
 62.615       4.677
 62.625       4.479
 62.635       4.294
 62.645       4.120
 62.655       0.000
 62.665       0.000
 62.675       0.000
 62.685       0.000
 62.695       0.000
 62.705       0.000
 62.715       0.000
 62.725       0.000
 62.735       0.000
 62.745       0.000
 62.755       0.000
 62.765       0.000
 62.775       0.000
 62.785       0.000
 62.795       0.000
 62.805       0.000
 62.815       0.000
 62.825       0.000
 62.835       0.000
 62.845       0.000
 62.855       0.000
 62.865       0.000
 62.875       0.000
 62.885       0.000
 62.895       0.000
 62.905       0.000
 62.915       0.000
 62.925       0.000
 62.935       0.000
 62.945       0.000
 62.955       0.000
 62.965       0.000
 62.975       0.000
 62.985       0.000
 62.995       0.000
 63.005       0.000
 63.015       0.000
 63.025       0.000
 63.035       0.000
 63.045       0.000
 63.055       0.000
 63.065       0.000
 63.075       0.000
 63.085       0.000
 63.095       0.000
 63.105       0.000
 63.115       0.000
 63.125       0.000
 63.135       0.000
 63.145       0.000
 63.156       0.000
 63.166       0.000
 63.176       0.000
 63.186       0.000
 63.196       0.000
 63.206       0.000
 63.216       0.000
 63.226       0.000
 63.236       0.000
 63.246       0.000
 63.256       0.000
 63.266       0.000
 63.276       0.000
 63.286       0.000
 63.296       0.000
 63.306       0.000
 63.316       0.000
 63.326       0.000
 63.336       0.000
 63.346       0.000
 63.356       0.000
 63.366       0.000
 63.376       0.000
 63.386       0.000
 63.396       0.000
 63.406       0.000
 63.416       0.000
 63.426       0.000
 63.436       0.000
 63.446       0.000
 63.456       0.000
 63.466       0.000
 63.476       0.000
 63.486       0.000
 63.496       0.000
 63.506       0.000
 63.516       0.000
 63.526       0.000
 63.536       0.000
 63.546       0.000
 63.556       0.000
 63.566       0.000
 63.576       0.000
 63.586       0.000
 63.596       0.000
 63.606       0.000
 63.616       0.000
 63.626       0.000
 63.636       0.000
 63.646       0.000
 63.656       0.000
 63.666       0.000
 63.676       0.000
 63.686       0.000
 63.696       0.000
 63.706       0.000
 63.717       0.000
 63.727       0.000
 63.737       0.000
 63.747       0.000
 63.757       0.000
 63.767       0.000
 63.777       0.000
 63.787       0.000
 63.797       0.000
 63.807       0.000
 63.817       0.000
 63.827       0.000
 63.837       0.000
 63.847       0.000
 63.857       0.000
 63.867       0.000
 63.877       0.000
 63.887       0.000
 63.897       0.000
 63.907       0.000
 63.917       0.000
 63.927       0.000
 63.937       0.000
 63.947       0.000
 63.957       0.000
 63.967       0.000
 63.977       0.000
 63.987       0.000
 63.997       0.000
 64.007       0.000
 64.017       0.000
 64.027       0.000
 64.037       0.000
 64.047       0.000
 64.057       0.000
 64.067       0.000
 64.077       0.000
 64.087       0.000
 64.097       0.000
 64.107       0.000
 64.117       0.000
 64.127       0.000
 64.137       0.000
 64.147       0.000
 64.157       0.000
 64.167       0.000
 64.177       0.000
 64.187       0.000
 64.197       0.000
 64.207       0.000
 64.217       0.000
 64.227       0.000
 64.237       0.000
 64.247       0.000
 64.257       0.000
 64.268       0.000
 64.278       0.000
 64.288       0.000
 64.298       0.000
 64.308       0.000
 64.318       0.000
 64.328       0.000
 64.338       0.000
 64.348       0.000
 64.358       0.000
 64.368       0.000
 64.378       0.000
 64.388       0.000
 64.398       0.000
 64.408       0.000
 64.418       0.000
 64.428       0.000
 64.438       0.000
 64.448       0.000
 64.458       0.000
 64.468       0.000
 64.478       0.000
 64.488       0.000
 64.498       0.000
 64.508       0.000
 64.518       0.000
 64.528       0.000
 64.538       0.000
 64.548       0.000
 64.558       0.000
 64.568       0.000
 64.578       0.000
 64.588       0.000
 64.598       0.000
 64.608       0.000
 64.618       0.000
 64.628       0.000
 64.638       0.000
 64.648       0.000
 64.658       0.000
 64.668       0.000
 64.678       0.000
 64.688       0.000
 64.698       0.000
 64.708       0.000
 64.718       0.000
 64.728       0.000
 64.738       0.000
 64.748       0.000
 64.758       0.000
 64.768       0.000
 64.778       0.000
 64.788       0.000
 64.798       0.000
 64.808       0.000
 64.818       0.000
 64.829       0.000
 64.839       0.000
 64.849       0.000
 64.859       0.000
 64.869       0.000
 64.879       0.000
 64.889       0.000
 64.899       0.000
 64.909       0.000
 64.919       0.000
 64.929       0.000
 64.939       0.000
 64.949       0.000
 64.959       0.000
 64.969       0.000
 64.979       0.000
 64.989       0.000
 64.999       0.000
 65.009       0.000
 65.019       0.000
 65.029       0.000
 65.039       0.000
 65.049       0.000
 65.059       0.000
 65.069       0.000
 65.079       0.000
 65.089       0.000
 65.099       0.000
 65.109       0.000
 65.119       0.000
 65.129       0.000
 65.139       0.000
 65.149       0.000
 65.159       0.000
 65.169       0.000
 65.179       0.000
 65.189       0.000
 65.199       0.000
 65.209       0.000
 65.219       0.000
 65.229       0.000
 65.239       0.000
 65.249       0.000
 65.259       0.000
 65.269       0.000
 65.279       0.000
 65.289       0.000
 65.299       0.000
 65.309       0.000
 65.319       0.000
 65.329       0.000
 65.339       0.000
 65.349       0.000
 65.359       0.000
 65.369       0.000
 65.380       0.000
 65.390       0.000
 65.400       0.000
 65.410       0.000
 65.420       0.000
 65.430       0.000
 65.440       0.000
 65.450       0.000
 65.460       0.000
 65.470       0.000
 65.480       0.000
 65.490       0.000
 65.500       0.000
 65.510       0.000
 65.520       0.000
 65.530       0.000
 65.540       0.000
 65.550       0.000
 65.560       0.000
 65.570       0.000
 65.580       0.000
 65.590       0.000
 65.600       0.000
 65.610       0.000
 65.620       0.000
 65.630       0.000
 65.640       0.000
 65.650       0.000
 65.660       0.000
 65.670       0.000
 65.680       0.000
 65.690       0.000
 65.700       0.000
 65.710       0.000
 65.720       0.000
 65.730       0.000
 65.740       0.000
 65.750       0.000
 65.760       0.000
 65.770       0.000
 65.780       0.000
 65.790       0.000
 65.800       0.000
 65.810       0.000
 65.820       0.000
 65.830       0.000
 65.840       0.000
 65.850       0.000
 65.860       0.000
 65.870       0.000
 65.880       0.000
 65.890       0.000
 65.900       0.000
 65.910       0.000
 65.920       0.000
 65.930       0.000
 65.941       0.000
 65.951       0.000
 65.961       0.000
 65.971       0.000
 65.981       0.000
 65.991       0.000
 66.001       0.000
 66.011       0.000
 66.021       0.000
 66.031       0.000
 66.041       0.000
 66.051       0.000
 66.061       0.000
 66.071       0.000
 66.081       0.000
 66.091       0.000
 66.101       0.000
 66.111       0.000
 66.121       0.000
 66.131       0.000
 66.141       0.000
 66.151       0.000
 66.161       0.000
 66.171       0.000
 66.181       0.000
 66.191       0.000
 66.201       0.000
 66.211       0.000
 66.221       0.000
 66.231       0.000
 66.241       0.000
 66.251       0.000
 66.261       0.000
 66.271       0.000
 66.281       0.000
 66.291       0.000
 66.301       0.000
 66.311       0.000
 66.321       0.000
 66.331       0.000
 66.341       0.000
 66.351       0.000
 66.361       0.000
 66.371       0.000
 66.381       0.000
 66.391       0.000
 66.401       0.000
 66.411       0.000
 66.421       0.000
 66.431       0.000
 66.441       0.000
 66.451       0.000
 66.461       0.000
 66.471       0.000
 66.481       0.000
 66.492       0.000
 66.502       0.000
 66.512       0.000
 66.522       0.000
 66.532       0.000
 66.542       0.000
 66.552       0.000
 66.562       0.000
 66.572       0.000
 66.582       0.000
 66.592       0.000
 66.602       0.000
 66.612       0.000
 66.622       0.000
 66.632       0.000
 66.642       0.000
 66.652       0.000
 66.662       0.000
 66.672       0.000
 66.682       0.000
 66.692       0.000
 66.702       0.000
 66.712       0.000
 66.722       0.000
 66.732       0.000
 66.742       0.000
 66.752       0.000
 66.762       0.000
 66.772       0.000
 66.782       0.000
 66.792       0.000
 66.802       0.000
 66.812       0.000
 66.822       0.000
 66.832       0.000
 66.842       0.000
 66.852       0.000
 66.862       0.000
 66.872       0.000
 66.882       0.000
 66.892       0.000
 66.902       0.000
 66.912       0.000
 66.922       0.000
 66.932       0.000
 66.942       0.000
 66.952       0.000
 66.962       0.000
 66.972       0.000
 66.982       0.000
 66.992       0.000
 67.002       0.000
 67.012       0.000
 67.022       0.000
 67.032       0.000
 67.042       0.000
 67.053       0.000
 67.063       0.000
 67.073       0.000
 67.083       0.000
 67.093       0.000
 67.103       0.000
 67.113       0.000
 67.123       0.000
 67.133       0.000
 67.143       0.000
 67.153       0.000
 67.163       0.000
 67.173       0.000
 67.183       0.000
 67.193       0.000
 67.203       0.000
 67.213       0.000
 67.223       0.000
 67.233       0.000
 67.243       0.000
 67.253       0.000
 67.263       0.000
 67.273       0.000
 67.283       0.000
 67.293       0.000
 67.303       0.000
 67.313       0.000
 67.323       0.000
 67.333       0.000
 67.343       0.000
 67.353       0.000
 67.363       0.000
 67.373       0.000
 67.383       0.000
 67.393       0.000
 67.403       0.000
 67.413       0.000
 67.423       0.000
 67.433       0.000
 67.443       0.000
 67.453       0.000
 67.463       0.000
 67.473       0.000
 67.483       0.000
 67.493       0.000
 67.503       0.000
 67.513       0.000
 67.523       0.000
 67.533       0.000
 67.543       0.000
 67.553       0.000
 67.563       0.000
 67.573       0.000
 67.583       0.000
 67.593       0.000
 67.604       0.000
 67.614       0.000
 67.624       0.000
 67.634       0.000
 67.644       0.000
 67.654       0.000
 67.664       0.000
 67.674       0.000
 67.684       0.000
 67.694       0.000
 67.704       0.000
 67.714       0.000
 67.724       0.000
 67.734       0.000
 67.744       0.000
 67.754       0.000
 67.764       0.000
 67.774       0.000
 67.784       0.000
 67.794       0.000
 67.804       0.000
 67.814       0.000
 67.824       0.000
 67.834       0.000
 67.844       0.000
 67.854       0.000
 67.864       0.000
 67.874       0.000
 67.884       0.000
 67.894       2.258
 67.904       2.352
 67.914       2.453
 67.924       2.561
 67.934       2.676
 67.944       2.798
 67.954       2.929
 67.964       3.070
 67.974       3.221
 67.984       3.384
 67.994       3.559
 68.004       3.748
 68.014       3.952
 68.024       4.174
 68.034       4.415
 68.044       4.677
 68.054       4.963
 68.064       5.277
 68.074       5.620
 68.084       5.999
 68.094       6.417
 68.104       6.880
 68.114       7.395
 68.124       7.970
 68.134       8.614
 68.144       9.340
 68.154      10.161
 68.165      11.095
 68.175      12.163
 68.185      13.393
 68.195      14.818
 68.205      16.481
 68.215      18.439
 68.225      20.765
 68.235      23.556
 68.245      26.944
 68.255      31.111
 68.265      36.310
 68.275      42.907
 68.285      51.441
 68.295      62.730
 68.305      78.073
 68.315      99.539
 68.325     130.683
 68.335     177.751
 68.345     252.040
 68.355     572.228
 68.365     756.301
 68.375     894.310
 68.385     946.125
 68.395     895.523
 68.405     758.355
 68.415     574.561
 68.425     253.185
 68.435     178.417
 68.445     131.115
 68.455      99.831
 68.465      78.278
 68.475      62.889
 68.485      51.560
 68.495      42.998
 68.505      36.381
 68.515      31.167
 68.525      26.990
 68.535      23.593
 68.545      20.796
 68.555      18.465
 68.565      16.502
 68.575      14.835
 68.585      13.408
 68.595      12.177
 68.605      11.107
 68.615      10.172
 68.625       9.349
 68.635       8.623
 68.645       7.977
 68.655       7.402
 68.665       6.886
 68.675       6.422
 68.685       6.003
 68.695       5.624
 68.705       5.280
 68.715       4.967
 68.726       4.680
 68.736       4.418
 68.746       4.177
 68.756       3.955
 68.766       3.750
 68.776       3.561
 68.786       3.386
 68.796       3.223
 68.806       3.072
 68.816       2.931
 68.826       2.800
 68.836       2.677
 68.846       2.562
 68.856       2.454
 68.866       2.354
 68.876       2.259
 68.886       0.000
 68.896       0.000
 68.906       0.000
 68.916       0.000
 68.926       0.000
 68.936       0.000
 68.946       0.000
 68.956       0.000
 68.966       0.000
 68.976       0.000
 68.986       0.000
 68.996       0.000
 69.006       0.000
 69.016       0.000
 69.026       0.000
 69.036       0.000
 69.046       0.000
 69.056       0.000
 69.066       0.000
 69.076       0.000
 69.086       0.000
 69.096       0.000
 69.106       0.000
 69.116       0.000
 69.126       0.000
 69.136       0.000
 69.146       0.000
 69.156       0.000
 69.166       0.000
 69.176       0.000
 69.186       0.000
 69.196       0.000
 69.206       0.000
 69.216       0.000
 69.226       0.000
 69.236       0.000
 69.246       0.000
 69.256       0.000
 69.266       0.000
 69.277       0.000
 69.287       0.000
 69.297       0.000
 69.307       0.000
 69.317       0.000
 69.327       0.000
 69.337       0.000
 69.347       0.000
 69.357       0.000
 69.367       0.000
 69.377       0.000
 69.387       0.000
 69.397       0.000
 69.407       0.000
 69.417       0.000
 69.427       0.000
 69.437       0.000
 69.447       0.000
 69.457       0.000
 69.467       0.000
 69.477       0.000
 69.487       0.000
 69.497       0.000
 69.507       0.000
 69.517       0.000
 69.527       0.000
 69.537       0.000
 69.547       0.000
 69.557       0.000
 69.567       0.000
 69.577       0.000
 69.587       0.000
 69.597       0.000
 69.607       0.000
 69.617       0.000
 69.627       0.000
 69.637       0.000
 69.647       0.000
 69.657       0.000
 69.667       0.000
 69.677       0.000
 69.687       0.000
 69.697       0.000
 69.707       0.000
 69.717       0.000
 69.727       0.000
 69.737       0.000
 69.747       0.000
 69.757       0.000
 69.767       0.000
 69.777       0.000
 69.787       0.000
 69.797       0.000
 69.807       0.000
 69.817       0.000
 69.827       0.000
 69.838       0.000
 69.848       0.000
 69.858       0.000
 69.868       0.000
 69.878       0.000
 69.888       0.000
 69.898       0.000
 69.908       0.000
 69.918       0.000
 69.928       0.000
 69.938       0.000
 69.948       0.000
 69.958       0.000
 69.968       0.000
 69.978       0.000
 69.988       0.000
 69.998       0.000
 70.008       0.000
 70.018       0.000
 70.028       0.000
 70.038       0.000
 70.048       0.000
 70.058       0.000
 70.068       0.000
 70.078       0.000
 70.088       0.000
 70.098       0.000
 70.108       0.000
 70.118       0.000
 70.128       0.000
 70.138       0.000
 70.148       0.000
 70.158       0.000
 70.168       0.000
 70.178       0.000
 70.188       0.000
 70.198       0.000
 70.208       0.000
 70.218       0.000
 70.228       0.000
 70.238       0.000
 70.248       0.000
 70.258       0.000
 70.268       0.000
 70.278       0.000
 70.288       0.000
 70.298       0.000
 70.308       0.000
 70.318       0.000
 70.328       0.000
 70.338       0.000
 70.348       0.000
 70.358       0.000
 70.368       0.000
 70.378       0.000
 70.389       0.000
 70.399       0.000
 70.409       0.000
 70.419       0.000
 70.429       0.000
 70.439       0.000
 70.449       0.000
 70.459       0.000
 70.469       0.000
 70.479       0.000
 70.489       0.000
 70.499       0.000
 70.509       0.000
 70.519       0.000
 70.529       0.000
 70.539       0.000
 70.549       0.000
 70.559       0.000
 70.569       0.000
 70.579       0.000
 70.589       0.000
 70.599       0.000
 70.609       0.000
 70.619       0.000
 70.629       0.000
 70.639       0.000
 70.649       0.000
 70.659       0.000
 70.669       0.000
 70.679       0.000
 70.689       0.000
 70.699       0.000
 70.709       0.000
 70.719       0.000
 70.729       0.000
 70.739       0.000
 70.749       0.000
 70.759       0.000
 70.769       0.000
 70.779       0.000
 70.789       0.000
 70.799       0.000
 70.809       0.000
 70.819       0.000
 70.829       0.000
 70.839       0.000
 70.849       0.000
 70.859       0.000
 70.869       0.000
 70.879       0.000
 70.889       0.000
 70.899       0.000
 70.909       0.000
 70.919       0.000
 70.929       0.000
 70.939       0.000
 70.950       0.000
 70.960       0.000
 70.970       0.000
 70.980       0.000
 70.990       0.000
 71.000       0.000
 71.010       0.000
 71.020       0.000
 71.030       0.000
 71.040       0.000
 71.050       0.000
 71.060       0.000
 71.070       0.000
 71.080       0.000
 71.090       0.000
 71.100       0.000
 71.110       0.000
 71.120       0.000
 71.130       0.000
 71.140       0.000
 71.150       0.000
 71.160       0.000
 71.170       0.000
 71.180       0.000
 71.190       0.000
 71.200       0.000
 71.210       0.000
 71.220       0.000
 71.230       0.000
 71.240       0.000
 71.250       0.000
 71.260       0.000
 71.270       0.000
 71.280       0.000
 71.290       0.000
 71.300       0.000
 71.310       0.000
 71.320       0.000
 71.330       0.000
 71.340       0.000
 71.350       0.000
 71.360       0.000
 71.370       0.000
 71.380       0.000
 71.390       0.000
 71.400       0.000
 71.410       0.000
 71.420       0.000
 71.430       0.000
 71.440       0.000
 71.450       0.000
 71.460       0.000
 71.470       0.000
 71.480       0.000
 71.490       0.000
 71.501       3.840
 71.511       4.001
 71.521       4.173
 71.531       4.356
 71.541       4.551
 71.551       4.759
 71.561       4.982
 71.571       5.221
 71.581       5.478
 71.591       5.754
 71.601       6.052
 71.611       6.373
 71.621       6.720
 71.631       7.097
 71.641       7.506
 71.651       7.951
 71.661       8.437
 71.671       8.969
 71.681       9.553
 71.691      10.195
 71.701      10.905
 71.711      11.691
 71.721      12.566
 71.731      13.541
 71.741      14.635
 71.751      15.866
 71.761      17.258
 71.771      18.842
 71.781      20.653
 71.791      22.736
 71.801      25.150
 71.811      27.968
 71.821      31.284
 71.831      35.221
 71.841      39.945
 71.851      45.681
 71.861      52.727
 71.871      61.514
 71.881      72.657
 71.891      87.062
 71.901     106.102
 71.911     131.930
 71.921     168.048
 71.931     220.380
 71.941     299.349
 71.951     423.804
 71.961     963.355
 71.971    1278.440
 71.981    1517.505
 71.991    1611.563
 72.001    1531.201
 72.011    1301.620
 72.021     989.929
 72.031     436.842
 72.041     307.450
 72.051     225.632
 72.062     171.602
 72.072     134.428
 72.082     107.916
 72.092      88.417
 72.102      73.685
 72.112      62.316
 72.122      53.365
 72.132      46.196
 72.142      40.371
 72.152      35.574
 72.162      31.579
 72.172      28.218
 72.182      25.364
 72.192      22.920
 72.202      20.812
 72.212      18.980
 72.222      17.379
 72.232      15.972
 72.242      14.729
 72.252      13.625
 72.262      12.640
 72.272      11.759
 72.282      10.966
 72.292      10.250
 72.302       9.603
 72.312       9.014
 72.322       8.478
 72.332       7.989
 72.342       7.540
 72.352       7.128
 72.362       6.749
 72.372       6.400
 72.382       6.077
 72.392       5.777
 72.402       5.500
 72.412       5.241
 72.422       5.001
 72.432       4.777
 72.442       4.567
 72.452       4.371
 72.462       4.187
 72.472       4.015
 72.482       3.853
 72.492       0.000
 72.502       0.000
 72.512       0.000
 72.522       0.000
 72.532       0.000
 72.542       0.000
 72.552       0.000
 72.562       0.000
 72.572       0.000
 72.582       0.000
 72.592       0.000
 72.602       0.000
 72.613       0.000
 72.623       0.000
 72.633       0.000
 72.643       0.000
 72.653       0.000
 72.663       0.000
 72.673       0.000
 72.683       0.000
 72.693       0.000
 72.703       0.000
 72.713       0.000
 72.723       0.000
 72.733       0.000
 72.743       0.000
 72.753       0.000
 72.763       0.000
 72.773       0.000
 72.783       0.000
 72.793       0.000
 72.803       0.000
 72.813       0.000
 72.823       0.000
 72.833       0.000
 72.843       0.000
 72.853       0.000
 72.863       0.000
 72.873       0.000
 72.883       0.000
 72.893       0.000
 72.903       0.000
 72.913       0.000
 72.923       0.000
 72.933       0.000
 72.943       0.000
 72.953       0.000
 72.963       0.000
 72.973       0.000
 72.983       0.000
 72.993       0.000
 73.003       0.000
 73.013       0.000
 73.023       0.000
 73.033       0.000
 73.043       0.000
 73.053       0.000
 73.063       0.000
 73.073       0.000
 73.083       0.000
 73.093       0.000
 73.103       0.000
 73.113       0.000
 73.123       0.000
 73.133       0.000
 73.143       0.000
 73.153       0.000
 73.163       0.000
 73.174       0.000
 73.184       0.000
 73.194       0.000
 73.204       0.000
 73.214       0.000
 73.224       0.000
 73.234       0.000
 73.244       0.000
 73.254       0.000
 73.264       0.000
 73.274       0.000
 73.284       0.000
 73.294       0.000
 73.304       0.000
 73.314       0.000
 73.324       0.000
 73.334       0.000
 73.344       0.000
 73.354       0.000
 73.364       0.000
 73.374       0.000
 73.384       0.000
 73.394       0.000
 73.404       0.000
 73.414       0.000
 73.424       0.000
 73.434       0.000
 73.444       0.000
 73.454       0.000
 73.464       0.000
 73.474       0.000
 73.484       0.000
 73.494       0.000
 73.504       0.000
 73.514       0.000
 73.524       0.000
 73.534       0.000
 73.544       0.000
 73.554       0.000
 73.564       0.000
 73.574       0.000
 73.584       0.000
 73.594       0.000
 73.604       0.000
 73.614       0.000
 73.624       0.000
 73.634       0.000
 73.644       0.000
 73.654       0.000
 73.664       0.000
 73.674       0.000
 73.684       0.000
 73.694       0.000
 73.704       0.000
 73.714       0.000
 73.724       0.000
 73.735       0.000
 73.745       0.000
 73.755       0.000
 73.765       0.000
 73.775       0.000
 73.785       0.000
 73.795       0.000
 73.805       0.000
 73.815       0.000
 73.825       0.000
 73.835       0.000
 73.845       0.000
 73.855       0.000
 73.865       0.000
 73.875       0.000
 73.885       0.000
 73.895       0.000
 73.905       0.000
 73.915       0.000
 73.925       0.000
 73.935       0.000
 73.945       0.000
 73.955       0.000
 73.965       0.000
 73.975       0.000
 73.985       0.000
 73.995       0.000
 74.005       0.000
 74.015       0.000
 74.025       0.000
 74.035       0.000
 74.045       0.000
 74.055       0.000
 74.065       0.000
 74.075       0.000
 74.085       0.000
 74.095       0.000
 74.105       0.000
 74.115       0.000
 74.125       0.000
 74.135       0.000
 74.145       0.000
 74.155       0.000
 74.165       0.000
 74.175       0.000
 74.185       0.000
 74.195       0.000
 74.205       0.000
 74.215       0.000
 74.225       0.000
 74.235       0.000
 74.245       0.000
 74.255       0.000
 74.265       0.000
 74.275       0.000
 74.286       0.000
 74.296       0.000
 74.306       0.000
 74.316       0.000
 74.326       0.000
 74.336       0.000
 74.346       0.000
 74.356       0.000
 74.366       0.000
 74.376       0.000
 74.386       0.000
 74.396       0.000
 74.406       0.000
 74.416       0.000
 74.426       0.000
 74.436       0.000
 74.446       0.000
 74.456       0.000
 74.466       0.000
 74.476       0.000
 74.486       0.000
 74.496       0.000
 74.506       0.000
 74.516       0.000
 74.526       0.000
 74.536       0.000
 74.546       0.000
 74.556       0.000
 74.566       0.000
 74.576       0.000
 74.586       0.000
 74.596       0.000
 74.606       0.000
 74.616       0.000
 74.626       0.000
 74.636       0.000
 74.646       0.000
 74.656       0.000
 74.666       0.000
 74.676       0.000
 74.686       0.000
 74.696       0.000
 74.706       0.000
 74.716       0.000
 74.726       0.000
 74.736       0.000
 74.746       0.000
 74.756       0.000
 74.766       0.000
 74.776       0.000
 74.786       0.000
 74.796       0.000
 74.806       0.000
 74.816       0.000
 74.826       0.000
 74.836       0.000
 74.847       0.000
 74.857       0.000
 74.867       0.000
 74.877       0.000
 74.887       0.000
 74.897       0.000
 74.907       0.000
 74.917       0.000
 74.927       0.000
 74.937       0.000
 74.947       0.000
 74.957       0.000
 74.967       0.000
 74.977       0.000
 74.987       0.000
 74.997       0.000
 75.007       0.000
 75.017       0.000
 75.027       0.000
 75.037       0.000
 75.047       0.000
 75.057       0.000
 75.067       0.000
 75.077       0.000
 75.087       0.000
 75.097       0.000
 75.107       0.000
 75.117       0.000
 75.127       0.000
 75.137       0.000
 75.147       0.000
 75.157       0.000
 75.167       0.000
 75.177       0.000
 75.187       0.000
 75.197       0.000
 75.207       0.000
 75.217       0.000
 75.227       0.000
 75.237       0.000
 75.247       0.000
 75.257       0.000
 75.267       0.000
 75.277       0.000
 75.287       0.000
 75.297       0.000
 75.307       0.000
 75.317       0.000
 75.327       0.000
 75.337       0.000
 75.347       0.000
 75.357       0.000
 75.367       0.000
 75.377       0.000
 75.387       0.000
 75.398       0.000
 75.408       0.000
 75.418       0.000
 75.428       0.000
 75.438       0.000
 75.448       0.000
 75.458       0.000
 75.468       0.000
 75.478       0.000
 75.488       0.000
 75.498       0.000
 75.508       0.000
 75.518       0.000
 75.528       0.000
 75.538       0.000
 75.548       0.000
 75.558       0.000
 75.568       0.000
 75.578       0.000
 75.588       0.000
 75.598       0.000
 75.608       0.000
 75.618       0.000
 75.628       0.000
 75.638       0.000
 75.648       0.000
 75.658       0.000
 75.668       0.000
 75.678       0.000
 75.688       0.000
 75.698       0.000
 75.708       0.000
 75.718       0.000
 75.728       0.000
 75.738       0.000
 75.748       0.000
 75.758       0.000
 75.768       0.000
 75.778       0.000
 75.788       0.000
 75.798       0.000
 75.808       0.000
 75.818       0.000
 75.828       0.000
 75.838       0.000
 75.848       0.000
 75.858       0.000
 75.868       0.000
 75.878       0.000
 75.888       0.000
 75.898       0.000
 75.908       0.000
 75.918       0.000
 75.928       0.000
 75.938       0.000
 75.948       0.000
 75.959       0.000
 75.969       0.000
 75.979       0.000
 75.989       0.000
 75.999       0.000
 76.009       0.000
 76.019       0.000
 76.029       0.000
 76.039       0.000
 76.049       0.000
 76.059       0.000
 76.069       0.000
 76.079       0.000
 76.089       0.000
 76.099       0.000
 76.109       0.000
 76.119       0.000
 76.129       0.000
 76.139       0.000
 76.149       0.000
 76.159       0.000
 76.169       0.000
 76.179       0.000
 76.189       0.000
 76.199       0.000
 76.209       0.000
 76.219       0.000
 76.229       0.000
 76.239       0.000
 76.249       0.000
 76.259       0.000
 76.269       0.000
 76.279       0.000
 76.289       0.000
 76.299       0.000
 76.309       0.000
 76.319       0.000
 76.329       0.000
 76.339       0.000
 76.349       0.000
 76.359       0.000
 76.369       0.000
 76.379       0.000
 76.389       0.000
 76.399       0.000
 76.409       0.000
 76.419       0.000
 76.429       0.000
 76.439       0.000
 76.449       0.000
 76.459       0.000
 76.469       0.000
 76.479       0.000
 76.489       0.000
 76.499       0.000
 76.509       0.000
 76.520       0.000
 76.530       0.000
 76.540       0.000
 76.550       0.000
 76.560       0.000
 76.570       0.000
 76.580       0.000
 76.590       0.000
 76.600       0.000
 76.610       0.000
 76.620       0.000
 76.630       0.000
 76.640       0.000
 76.650       0.000
 76.660       0.000
 76.670       0.000
 76.680       0.000
 76.690       0.000
 76.700       0.000
 76.710       0.000
 76.720       0.000
 76.730       0.000
 76.740       0.000
 76.750       0.000
 76.760       0.000
 76.770       0.000
 76.780       0.000
 76.790       0.000
 76.800       0.000
 76.810       0.000
 76.820       0.000
 76.830       0.000
 76.840       0.000
 76.850       0.000
 76.860       0.000
 76.870       0.000
 76.880       0.000
 76.890       0.000
 76.900       0.000
 76.910       0.000
 76.920       0.000
 76.930       0.000
 76.940       0.000
 76.950       0.000
 76.960       0.000
 76.970       0.000
 76.980       0.000
 76.990       0.000
 77.000       0.000
 77.010       0.000
 77.020       0.000
 77.030       0.000
 77.040       0.000
 77.050       0.000
 77.060       0.000
 77.071       0.000
 77.081       0.000
 77.091       0.000
 77.101       0.000
 77.111       0.000
 77.121       0.000
 77.131       0.000
 77.141       0.000
 77.151       0.000
 77.161       0.000
 77.171       0.000
 77.181       0.000
 77.191       0.000
 77.201       0.000
 77.211       0.000
 77.221       0.000
 77.231       0.000
 77.241       0.000
 77.251       0.000
 77.261       0.000
 77.271       0.000
 77.281       0.000
 77.291       0.000
 77.301       0.000
 77.311       0.000
 77.321       0.000
 77.331       0.000
 77.341       0.000
 77.351       0.000
 77.361       3.055
 77.371       3.183
 77.381       3.320
 77.391       3.466
 77.401       3.622
 77.411       3.789
 77.421       3.967
 77.431       4.158
 77.441       4.363
 77.451       4.584
 77.461       4.822
 77.471       5.079
 77.481       5.357
 77.491       5.659
 77.501       5.986
 77.511       6.343
 77.521       6.733
 77.531       7.160
 77.541       7.629
 77.551       8.145
 77.561       8.715
 77.571       9.347
 77.581      10.050
 77.591      10.836
 77.601      11.717
 77.611      12.709
 77.621      13.833
 77.632      15.111
 77.642      16.575
 77.652      18.262
 77.662      20.219
 77.672      22.506
 77.682      25.200
 77.692      28.405
 77.702      32.256
 77.712      36.940
 77.722      42.709
 77.732      49.923
 77.742      59.099
 77.752      71.002
 77.762      86.800
 77.772     108.331
 77.782     138.635
 77.792     182.801
 77.802     249.929
 77.812     356.472
 77.822     804.261
 77.832    1047.412
 77.842    1220.410
 77.852    1272.218
 77.862    1186.546
 77.872     990.091
 77.882     739.151
 77.892     324.483
 77.902     230.052
 77.912     169.879
 77.922     129.893
 77.932     102.206
 77.942      82.351
 77.952      67.680
 77.962      56.557
 77.972      47.938
 77.982      41.130
 77.992      35.664
 78.002      31.212
 78.012      27.539
 78.022      24.475
 78.032      21.892
 78.042      19.695
 78.052      17.812
 78.062      16.186
 78.072      14.772
 78.082      13.535
 78.092      12.446
 78.102      11.484
 78.112      10.629
 78.122       9.865
 78.132       9.181
 78.142       8.565
 78.152       8.010
 78.162       7.506
 78.172       7.048
 78.183       6.631
 78.193       6.250
 78.203       5.901
 78.213       5.580
 78.223       5.285
 78.233       5.012
 78.243       4.760
 78.253       4.527
 78.263       4.310
 78.273       4.108
 78.283       3.921
 78.293       3.745
 78.303       3.582
 78.313       3.428
 78.323       3.285
 78.333       3.150
 78.343       3.023
 78.353       0.000
 78.363       0.000
 78.373       0.000
 78.383       0.000
 78.393       0.000
 78.403       0.000
 78.413       0.000
 78.423       0.000
 78.433       0.000
 78.443       0.000
 78.453       0.000
 78.463       0.000
 78.473       0.000
 78.483       0.000
 78.493       0.000
 78.503       0.000
 78.513       0.000
 78.523       0.000
 78.533       0.000
 78.543       0.000
 78.553       0.000
 78.563       0.000
 78.573       0.000
 78.583       0.000
 78.593       0.000
 78.603       0.000
 78.613       0.000
 78.623       0.000
 78.633       0.000
 78.643       0.000
 78.653       0.000
 78.663       0.000
 78.673       0.000
 78.683       0.000
 78.693       0.000
 78.703       0.000
 78.713       0.000
 78.723       0.000
 78.733       0.000
 78.744       0.000
 78.754       0.000
 78.764       0.000
 78.774       0.000
 78.784       0.000
 78.794       0.000
 78.804       0.000
 78.814       0.000
 78.824       0.000
 78.834       0.000
 78.844       0.000
 78.854       0.000
 78.864       0.000
 78.874       0.000
 78.884       0.000
 78.894       0.000
 78.904       0.000
 78.914       0.000
 78.924       0.000
 78.934       0.000
 78.944       0.000
 78.954       0.000
 78.964       0.000
 78.974       0.000
 78.984       0.000
 78.994       0.000
 79.004       0.000
 79.014       0.000
 79.024       0.000
 79.034       0.000
 79.044       0.000
 79.054       0.000
 79.064       0.000
 79.074       0.000
 79.084       0.000
 79.094       0.000
 79.104       0.000
 79.114       0.000
 79.124       0.000
 79.134       0.000
 79.144       0.000
 79.154       0.000
 79.164       0.000
 79.174       0.000
 79.184       0.000
 79.194       0.000
 79.204       0.000
 79.214       0.000
 79.224       0.000
 79.234       0.000
 79.244       0.000
 79.254       0.000
 79.264       0.000
 79.274       0.000
 79.284       0.000
 79.295       0.000
 79.305       0.000
 79.315       0.000
 79.325       0.000
 79.335       0.000
 79.345       0.000
 79.355       0.000
 79.365       0.000
 79.375       0.000
 79.385       0.000
 79.395       0.000
 79.405       0.000
 79.415       0.000
 79.425       0.000
 79.435       0.000
 79.445       0.000
 79.455       0.000
 79.465       0.000
 79.475       0.000
 79.485       0.000
 79.495       0.000
 79.505       0.000
 79.515       0.000
 79.525       0.000
 79.535       0.000
 79.545       0.000
 79.555       0.000
 79.565       0.000
 79.575       0.000
 79.585       0.000
 79.595       0.000
 79.605       0.000
 79.615       0.000
 79.625       0.000
 79.635       0.000
 79.645       0.000
 79.655       0.000
 79.665       0.000
 79.675       0.000
 79.685       0.000
 79.695       0.000
 79.705       0.000
 79.715       0.000
 79.725       0.000
 79.735       0.000
 79.745       0.000
 79.755       0.000
 79.765       0.000
 79.775       0.000
 79.785       0.000
 79.795       0.000
 79.805       0.000
 79.815       0.000
 79.825       0.000
 79.835       0.000
 79.845       0.000
 79.856       0.000
 79.866       0.000
 79.876       0.000
 79.886       0.000
 79.896       0.000
 79.906       0.000
 79.916       0.000
 79.926       0.000
 79.936       0.000
 79.946       0.000
 79.956       0.000
 79.966       0.000
 79.976       0.000
 79.986       0.000
 79.996       0.000
 80.006       0.000
 80.016       0.000
 80.026       0.000
 80.036       0.000
 80.046       0.000
 80.056       0.000
 80.066       0.000
 80.076       0.000
 80.086       0.000
 80.096       0.000
 80.106       0.000
 80.116       0.000
 80.126       0.000
 80.136       0.000
 80.146       0.000
 80.156       0.000
 80.166       0.000
 80.176       0.000
 80.186       0.000
 80.196       0.000
 80.206       0.000
 80.216       0.000
 80.226       0.000
 80.236       0.000
 80.246       0.000
 80.256       0.000
 80.266       0.000
 80.276       0.000
 80.286       0.000
 80.296       0.000
 80.306       0.000
 80.316       0.000
 80.326       0.000
 80.336       0.000
 80.346       0.000
 80.356       0.000
 80.366       0.000
 80.376       0.000
 80.386       0.000
 80.396       0.000
 80.407       0.000
 80.417       0.000
 80.427       0.000
 80.437       0.000
 80.447       0.000
 80.457       0.000
 80.467       0.000
 80.477       0.000
 80.487       0.000
 80.497       0.000
 80.507       0.000
 80.517       0.000
 80.527       0.000
 80.537       0.000
 80.547       0.000
 80.557       0.000
 80.567       0.000
 80.577       0.000
 80.587       0.000
 80.597       0.000
 80.607       0.000
 80.617       0.000
 80.627       0.000
 80.637       0.000
 80.647       0.000
 80.657       0.000
 80.667       0.000
 80.677       0.000
 80.687       0.000
 80.697       0.000
 80.707       0.000
 80.717       0.000
 80.727       0.000
 80.737       0.000
 80.747       0.000
 80.757       0.000
 80.767       0.000
 80.777       0.000
 80.787       0.000
 80.797       0.000
 80.807       1.328
 80.817       1.384
 80.827       1.443
 80.837       1.506
 80.847       1.573
 80.857       1.644
 80.867       1.721
 80.877       1.803
 80.887       1.891
 80.897       1.986
 80.907       2.088
 80.917       2.198
 80.927       2.317
 80.937       2.446
 80.947       2.586
 80.957       2.738
 80.968       2.905
 80.978       3.086
 80.988       3.286
 80.998       3.505
 81.008       3.747
 81.018       4.015
 81.028       4.312
 81.038       4.644
 81.048       5.016
 81.058       5.433
 81.068       5.906
 81.078       6.442
 81.088       7.054
 81.098       7.757
 81.108       8.571
 81.118       9.519
 81.128      10.632
 81.138      11.951
 81.148      13.529
 81.158      15.438
 81.168      17.778
 81.178      20.685
 81.188      24.356
 81.198      29.083
 81.208      35.292
 81.218      43.660
 81.228      55.272
 81.238      71.947
 81.248      96.858
 81.258     135.718
 81.268     309.451
 81.278     421.595
 81.288     513.887
 81.298     560.411
 81.308     546.780
 81.318     477.225
 81.328     372.673
 81.338     166.931
 81.348     116.249
 81.358      84.512
 81.368      63.769
 81.378      49.630
 81.388      39.627
 81.398      32.321
 81.408      26.836
 81.418      22.622
 81.428      19.318
 81.438      16.682
 81.448      14.546
 81.458      12.793
 81.468      11.338
 81.478      10.116
 81.488       9.080
 81.498       8.195
 81.508       7.433
 81.519       6.772
 81.529       6.196
 81.539       5.689
 81.549       5.242
 81.559       4.846
 81.569       4.493
 81.579       4.177
 81.589       3.893
 81.599       3.637
 81.609       3.405
 81.619       3.195
 81.629       3.004
 81.639       2.829
 81.649       2.669
 81.659       2.523
 81.669       2.388
 81.679       2.263
 81.689       2.148
 81.699       2.042
 81.709       1.943
 81.719       1.851
 81.729       1.766
 81.739       1.686
 81.749       1.612
 81.759       1.542
 81.769       1.477
 81.779       1.416
 81.789       1.359
 81.799       0.000
 81.809       0.000
 81.819       0.000
 81.829       0.000
 81.839       0.000
 81.849       0.000
 81.859       0.000
 81.869       0.000
 81.879       0.000
 81.889       0.000
 81.899       0.000
 81.909       0.000
 81.919       0.000
 81.929       0.000
 81.939       0.000
 81.949       0.000
 81.959       0.000
 81.969       0.000
 81.979       0.000
 81.989       0.000
 81.999       0.000
 82.009       0.000
 82.019       0.000
 82.029       0.000
 82.039       0.000
 82.049       0.000
 82.059       0.000
 82.069       0.000
 82.080       0.000
 82.090       0.000
 82.100       0.000
 82.110       0.000
 82.120       0.000
 82.130       0.000
 82.140       0.000
 82.150       0.000
 82.160       0.000
 82.170       0.000
 82.180       0.000
 82.190       0.000
 82.200       0.000
 82.210       0.000
 82.220       0.000
 82.230       0.000
 82.240       0.000
 82.250       0.000
 82.260       0.000
 82.270       0.000
 82.280       0.000
 82.290       0.000
 82.300       0.000
 82.310       0.000
 82.320       0.000
 82.330       0.000
 82.340       0.000
 82.350       0.000
 82.360       0.000
 82.370       0.000
 82.380       0.000
 82.390       0.000
 82.400       0.000
 82.410       0.000
 82.420       0.000
 82.430       0.000
 82.440       0.000
 82.450       0.000
 82.460       0.000
 82.470       0.000
 82.480       0.000
 82.490       0.000
 82.500       0.000
 82.510       0.000
 82.520       0.000
 82.530       0.000
 82.540       0.000
 82.550       0.000
 82.560       0.000
 82.570       0.000
 82.580       0.000
 82.590       0.000
 82.600       0.000
 82.610       0.000
 82.620       0.000
 82.631       0.000
 82.641       0.000
 82.651       0.000
 82.661       0.000
 82.671       0.000
 82.681       0.000
 82.691       0.000
 82.701       0.000
 82.711       0.000
 82.721       0.000
 82.731       0.000
 82.741       0.000
 82.751       0.000
 82.761       0.000
 82.771       0.000
 82.781       0.000
 82.791       0.000
 82.801       0.000
 82.811       0.000
 82.821       0.000
 82.831       0.000
 82.841       0.000
 82.851       0.000
 82.861       0.000
 82.871       0.000
 82.881       0.000
 82.891       0.000
 82.901       0.000
 82.911       0.000
 82.921       0.000
 82.931       0.000
 82.941       0.000
 82.951       0.000
 82.961       0.000
 82.971       0.000
 82.981       0.000
 82.991       0.000
 83.001       0.000
 83.011       0.000
 83.021       0.000
 83.031       0.000
 83.041       0.000
 83.051       0.000
 83.061       0.000
 83.071       0.000
 83.081       0.000
 83.091       0.000
 83.101       0.000
 83.111       0.000
 83.121       0.000
 83.131       0.000
 83.141       0.000
 83.151       0.000
 83.161       0.000
 83.171       0.000
 83.181       0.000
 83.192       0.000
 83.202       0.000
 83.212       0.000
 83.222       0.000
 83.232       0.000
 83.242       0.000
 83.252       0.000
 83.262       0.000
 83.272       0.000
 83.282       0.000
 83.292       0.000
 83.302       0.000
 83.312       0.000
 83.322       0.000
 83.332       0.000
 83.342       0.000
 83.352       0.000
 83.362       0.000
 83.372       0.000
 83.382       0.000
 83.392       0.000
 83.402       0.000
 83.412       0.000
 83.422       0.000
 83.432       0.000
 83.442       0.000
 83.452       0.000
 83.462       0.000
 83.472       0.000
 83.482       0.000
 83.492       0.000
 83.502       0.000
 83.512       0.000
 83.522       0.000
 83.532       0.000
 83.542       0.000
 83.552       0.000
 83.562       0.000
 83.572       0.000
 83.582       0.000
 83.592       0.000
 83.602       0.000
 83.612       0.000
 83.622       0.000
 83.632       0.000
 83.642       0.000
 83.652       0.000
 83.662       0.000
 83.672       0.000
 83.682       0.000
 83.692       0.000
 83.702       0.000
 83.712       0.000
 83.722       0.000
 83.732       0.000
 83.743       0.000
 83.753       0.000
 83.763       0.000
 83.773       0.000
 83.783       0.000
 83.793       0.000
 83.803       0.000
 83.813       0.000
 83.823       0.000
 83.833       0.000
 83.843       0.000
 83.853       0.000
 83.863       0.000
 83.873       0.000
 83.883       0.000
 83.893       0.000
 83.903       0.000
 83.913       0.000
 83.923       0.000
 83.933       0.000
 83.943       0.000
 83.953       0.000
 83.963       0.000
 83.973       0.000
 83.983       0.000
 83.993       0.000
 84.003       0.000
 84.013       0.000
 84.023       0.000
 84.033       0.000
 84.043       0.000
 84.053       0.000
 84.063       0.000
 84.073       0.000
 84.083       0.000
 84.093       0.000
 84.103       0.000
 84.113       0.000
 84.123       0.000
 84.133       0.000
 84.143       0.000
 84.153       0.000
 84.163       0.000
 84.173       0.000
 84.183       0.000
 84.193       0.000
 84.203       0.000
 84.213       0.000
 84.223       0.000
 84.233       0.000
 84.243       0.000
 84.253       0.000
 84.263       0.000
 84.273       0.000
 84.283       0.000
 84.293       0.000
 84.304       0.000
 84.314       0.000
 84.324       0.000
 84.334       0.000
 84.344       0.000
 84.354       0.000
 84.364       0.000
 84.374       0.000
 84.384       0.000
 84.394       0.000
 84.404       0.000
 84.414       0.000
 84.424       0.000
 84.434       0.000
 84.444       0.000
 84.454       0.000
 84.464       0.000
 84.474       0.000
 84.484       0.000
 84.494       0.000
 84.504       0.000
 84.514       0.000
 84.524       0.000
 84.534       0.000
 84.544       0.000
 84.554       0.000
 84.564       0.000
 84.574       0.000
 84.584       0.000
 84.594       0.000
 84.604       0.000
 84.614       0.000
 84.624       0.000
 84.634       0.000
 84.644       0.000
 84.654       0.000
 84.664       0.000
 84.674       0.000
 84.684       0.000
 84.694       0.000
 84.704       0.000
 84.714       0.000
 84.724       0.000
 84.734       0.000
 84.744       0.000
 84.754       0.000
 84.764       0.000
 84.774       0.000
 84.784       0.000
 84.794       0.000
 84.804       0.000
 84.814       0.000
 84.824       0.000
 84.834       0.000
 84.844       0.000
 84.854       0.000
 84.865       0.000
 84.875       0.000
 84.885       0.000
 84.895       0.000
 84.905       0.000
 84.915       0.000
 84.925       0.000
 84.935       0.000
 84.945       0.000
 84.955       0.000
 84.965       0.000
 84.975       0.000
 84.985       0.000
 84.995       0.000
 85.005       0.000
 85.015       0.000
 85.025       0.000
 85.035       0.000
 85.045       0.000
 85.055       0.000
 85.065       0.000
 85.075       0.000
 85.085       0.000
 85.095       0.000
 85.105       0.000
 85.115       0.000
 85.125       0.000
 85.135       0.000
 85.145       0.000
 85.155       0.000
 85.165       0.000
 85.175       0.000
 85.185       0.000
 85.195       0.000
 85.205       0.000
 85.215       0.000
 85.225       0.000
 85.235       0.000
 85.245       0.000
 85.255       0.000
 85.265       0.000
 85.275       0.000
 85.285       0.000
 85.295       0.000
 85.305       0.000
 85.315       0.000
 85.325       0.000
 85.335       0.000
 85.345       0.000
 85.355       0.000
 85.365       0.000
 85.375       0.000
 85.385       0.000
 85.395       0.000
 85.405       0.000
 85.416       0.000
 85.426       0.000
 85.436       0.000
 85.446       0.000
 85.456       0.000
 85.466       0.000
 85.476       0.000
 85.486       0.000
 85.496       0.000
 85.506       0.000
 85.516       0.000
 85.526       0.000
 85.536       0.000
 85.546       0.000
 85.556       0.000
 85.566       0.000
 85.576       0.000
 85.586       0.000
 85.596       0.000
 85.606       0.000
 85.616       0.000
 85.626       0.000
 85.636       0.000
 85.646       0.000
 85.656       0.000
 85.666       0.000
 85.676       0.000
 85.686       0.000
 85.696       0.000
 85.706       0.000
 85.716       0.000
 85.726       0.000
 85.736       0.000
 85.746       0.000
 85.756       0.000
 85.766       0.000
 85.776       0.000
 85.786       0.000
 85.796       0.000
 85.806       0.000
 85.816       0.000
 85.826       0.000
 85.836       0.000
 85.846       0.000
 85.856       0.000
 85.866       0.000
 85.876       0.000
 85.886       0.000
 85.896       0.000
 85.906       0.000
 85.916       0.000
 85.926       0.000
 85.936       0.000
 85.946       0.000
 85.956       0.000
 85.966       0.000
 85.977       0.000
 85.987       0.000
 85.997       0.000
 86.007       0.000
 86.017       0.000
 86.027       0.000
 86.037       0.000
 86.047       0.000
 86.057       0.000
 86.067       0.000
 86.077       0.000
 86.087       0.000
 86.097       0.000
 86.107       0.000
 86.117       0.000
 86.127       0.000
 86.137       0.000
 86.147       0.000
 86.157       0.000
 86.167       0.000
 86.177       0.000
 86.187       0.000
 86.197       0.000
 86.207       0.000
 86.217       0.000
 86.227       0.000
 86.237       0.000
 86.247       0.000
 86.257       0.000
 86.267       0.000
 86.277       0.000
 86.287       0.000
 86.297       0.000
 86.307       0.000
 86.317       0.000
 86.327       0.000
 86.337       0.000
 86.347       0.000
 86.357       0.000
 86.367       0.000
 86.377       0.000
 86.387       0.000
 86.397       0.000
 86.407       0.000
 86.417       0.000
 86.427       0.000
 86.437       0.000
 86.447       0.000
 86.457       0.000
 86.467       0.000
 86.477       0.000
 86.487       0.000
 86.497       0.753
 86.507       0.785
 86.517       0.819
 86.528       0.855
 86.538       0.893
 86.548       0.934
 86.558       0.978
 86.568       1.025
 86.578       1.075
 86.588       1.130
 86.598       1.188
 86.608       1.252
 86.618       1.320
 86.628       1.394
 86.638       1.475
 86.648       1.563
 86.658       1.659
 86.668       1.764
 86.678       1.879
 86.688       2.006
 86.698       2.146
 86.708       2.301
 86.718       2.474
 86.728       2.667
 86.738       2.883
 86.748       3.127
 86.758       3.403
 86.768       3.717
 86.778       4.077
 86.788       4.490
 86.798       4.970
 86.808       5.530
 86.818       6.191
 86.828       6.976
 86.838       7.918
 86.848       9.064
 86.858      10.475
 86.868      12.237
 86.878      14.478
 86.888      17.381
 86.898      21.229
 86.908      26.467
 86.918      33.819
 86.928      44.522
 86.938      60.755
 86.948      86.467
 86.958     195.597
 86.968     256.118
 86.978     300.043
 86.988     314.481
 86.998     294.899
 87.008     247.368
 87.018     185.661
 87.028      81.590
 87.038      57.724
 87.048      42.557
 87.058      32.490
 87.068      25.532
 87.078      20.551
 87.089      16.874
 87.099      14.091
 87.109      11.935
 87.119      10.235
 87.129       8.870
 87.139       7.759
 87.149       6.844
 87.159       6.080
 87.169       5.437
 87.179       4.890
 87.189       4.422
 87.199       4.017
 87.209       3.665
 87.219       3.358
 87.229       3.087
 87.239       2.848
 87.249       2.636
 87.259       2.446
 87.269       2.276
 87.279       2.123
 87.289       1.985
 87.299       1.860
 87.309       1.747
 87.319       1.643
 87.329       1.549
 87.339       1.462
 87.349       1.382
 87.359       1.309
 87.369       1.241
 87.379       1.179
 87.389       1.121
 87.399       1.067
 87.409       1.017
 87.419       0.971
 87.429       0.927
 87.439       0.887
 87.449       0.849
 87.459       0.813
 87.469       0.780
 87.479       0.748
 87.489       0.000
 87.499       0.000
 87.509       0.000
 87.519       0.000
 87.529       0.000
 87.539       0.000
 87.549       0.000
 87.559       0.000
 87.569       0.000
 87.579       0.000
 87.589       0.000
 87.599       0.000
 87.609       0.000
 87.619       0.000
 87.629       0.000
 87.640       0.000
 87.650       0.000
 87.660       0.000
 87.670       0.000
 87.680       0.000
 87.690       0.000
 87.700       0.000
 87.710       0.000
 87.720       0.000
 87.730       0.000
 87.740       0.000
 87.750       0.000
 87.760       0.000
 87.770       0.000
 87.780       0.000
 87.790       0.000
 87.800       0.000
 87.810       0.000
 87.820       0.000
 87.830       0.000
 87.840       0.000
 87.850       0.000
 87.860       0.000
 87.870       0.000
 87.880       0.000
 87.890       0.000
 87.900       0.000
 87.910       0.000
 87.920       0.000
 87.930       0.000
 87.940       0.000
 87.950       0.000
 87.960       0.000
 87.970       0.000
 87.980       0.000
 87.990       0.000
 88.000       0.000
 88.010       0.000
 88.020       0.000
 88.030       0.000
 88.040       0.000
 88.050       0.000
 88.060       0.000
 88.070       0.000
 88.080       0.000
 88.090       0.000
 88.100       0.000
 88.110       0.000
 88.120       0.000
 88.130       0.000
 88.140       0.000
 88.150       0.000
 88.160       0.000
 88.170       0.000
 88.180       0.000
 88.190       0.000
 88.201       0.000
 88.211       0.000
 88.221       0.000
 88.231       0.000
 88.241       0.000
 88.251       0.000
 88.261       0.000
 88.271       0.000
 88.281       0.000
 88.291       0.000
 88.301       0.000
 88.311       0.000
 88.321       0.000
 88.331       0.000
 88.341       0.000
 88.351       0.000
 88.361       0.000
 88.371       0.000
 88.381       0.000
 88.391       0.000
 88.401       0.000
 88.411       0.000
 88.421       0.000
 88.431       0.000
 88.441       0.000
 88.451       0.000
 88.461       0.000
 88.471       0.000
 88.481       0.000
 88.491       0.000
 88.501       0.000
 88.511       0.000
 88.521       0.000
 88.531       0.000
 88.541       0.000
 88.551       0.000
 88.561       0.000
 88.571       0.000
 88.581       0.000
 88.591       0.000
 88.601       0.000
 88.611       0.000
 88.621       0.000
 88.631       0.000
 88.641       0.000
 88.651       0.000
 88.661       0.000
 88.671       0.000
 88.681       0.000
 88.691       0.000
 88.701       0.000
 88.711       0.000
 88.721       0.000
 88.731       0.000
 88.741       0.000
 88.751       0.000
 88.762       0.000
 88.772       0.000
 88.782       0.000
 88.792       0.000
 88.802       0.000
 88.812       0.000
 88.822       0.000
 88.832       0.000
 88.842       0.000
 88.852       0.000
 88.862       0.000
 88.872       0.000
 88.882       0.000
 88.892       0.000
 88.902       0.000
 88.912       0.000
 88.922       0.000
 88.932       0.000
 88.942       0.000
 88.952       0.000
 88.962       0.000
 88.972       0.000
 88.982       0.000
 88.992       0.000
 89.002       0.000
 89.012       0.000
 89.022       0.000
 89.032       0.000
 89.042       0.000
 89.052       0.000
 89.062       0.000
 89.072       0.000
 89.082       0.000
 89.092       0.000
 89.102       0.000
 89.112       0.000
 89.122       0.000
 89.132       0.000
 89.142       0.000
 89.152       0.000
 89.162       0.000
 89.172       0.000
 89.182       0.000
 89.192       0.000
 89.202       0.000
 89.212       0.000
 89.222       0.000
 89.232       0.000
 89.242       0.000
 89.252       0.000
 89.262       0.000
 89.272       0.000
 89.282       0.000
 89.292       0.000
 89.302       0.000
 89.313       0.000
 89.323       0.000
 89.333       0.000
 89.343       0.000
 89.353       0.000
 89.363       0.000
 89.373       0.000
 89.383       0.000
 89.393       0.000
 89.403       0.000
 89.413       0.000
 89.423       0.000
 89.433       0.000
 89.443       0.000
 89.453       0.000
 89.463       0.000
 89.473       0.000
 89.483       0.000
 89.493       0.000
 89.503       0.000
 89.513       0.000
 89.523       0.000
 89.533       0.000
 89.543       0.000
 89.553       0.000
 89.563       0.000
 89.573       0.000
 89.583       0.000
 89.593       0.000
 89.603       0.000
 89.613       0.000
 89.623       0.000
 89.633       0.000
 89.643       0.000
 89.653       0.000
 89.663       0.000
 89.673       0.000
 89.683       0.000
 89.693       0.000
 89.703       0.000
 89.713       0.000
 89.723       0.000
 89.733       0.000
 89.743       0.000
 89.753       0.000
 89.763       0.000
 89.773       0.000
 89.783       0.000
 89.793       0.000
 89.803       0.000
 89.813       0.000
 89.823       0.000
 89.833       0.000
 89.843       0.000
 89.853       0.000
 89.863       0.000
 89.874       0.000
 89.884       0.000
 89.894       0.000
 89.904       0.000
 89.914       0.000
 89.924       0.000
 89.934       0.000
 89.944       0.000
 89.954       0.000
 89.964       0.000
 89.974       0.000
 89.984       0.000
 89.994       0.000
 90.004       0.000
