t /s	T /°C	HF /mw
8.838	371.314	-4.731
8.846	371.483	-4.735
8.854	371.648	-4.739
8.863	371.814	-4.743
8.871	371.983	-4.747
8.879	372.150	-4.750
8.888	372.316	-4.753
8.896	372.486	-4.756
8.904	372.651	-4.758
8.913	372.818	-4.760
8.921	372.985	-4.762
8.929	373.152	-4.764
8.938	373.319	-4.766
8.946	373.489	-4.768
8.954	373.658	-4.770
8.963	373.821	-4.771
8.971	373.991	-4.773
8.979	374.160	-4.775
8.988	374.328	-4.777
8.996	374.491	-4.779
9.004	374.658	-4.781
9.013	374.827	-4.782
9.021	374.993	-4.784
9.029	375.162	-4.786
9.038	375.331	-4.787
9.046	375.492	-4.788
9.054	375.663	-4.790
9.063	375.829	-4.791
9.071	376.000	-4.792
9.079	376.163	-4.793
9.088	376.333	-4.795
9.096	376.503	-4.796
9.104	376.667	-4.797
9.113	376.836	-4.798
9.121	377.005	-4.799
9.129	377.173	-4.800
9.138	377.342	-4.802
9.146	377.511	-4.803
9.154	377.676	-4.804
9.163	377.841	-4.805
9.171	378.009	-4.806
9.179	378.174	-4.807
9.188	378.340	-4.808
9.196	378.510	-4.810
9.204	378.679	-4.811
9.213	378.842	-4.812
9.221	379.012	-4.813
9.229	379.180	-4.815
9.238	379.356	-4.817
9.246	379.517	-4.817
9.254	379.688	-4.818
9.263	379.853	-4.819
9.271	380.020	-4.820
9.279	380.190	-4.821
9.288	380.360	-4.822
9.296	380.525	-4.823
9.304	380.692	-4.824
9.313	380.861	-4.825
9.321	381.025	-4.825
9.329	381.196	-4.827
9.338	381.361	-4.828
9.346	381.530	-4.829
9.354	381.694	-4.830
9.363	381.862	-4.831
9.371	382.030	-4.832
9.379	382.197	-4.833
9.388	382.367	-4.833
9.396	382.536	-4.834
9.404	382.700	-4.835
9.413	382.868	-4.836
9.421	383.037	-4.837
9.429	383.206	-4.837
9.438	383.377	-4.838
9.446	383.540	-4.838
9.454	383.708	-4.839
9.463	383.877	-4.840
9.471	384.050	-4.841
9.479	384.215	-4.841
9.488	384.378	-4.841
9.496	384.548	-4.841
9.504	384.716	-4.842
9.513	384.891	-4.843
9.521	385.052	-4.843
9.529	385.222	-4.844
9.538	385.388	-4.845
9.546	385.556	-4.846
9.554	385.729	-4.847
9.563	385.890	-4.847
9.571	386.065	-4.848
9.579	386.234	-4.849
9.588	386.402	-4.849
9.596	386.568	-4.849
9.604	386.739	-4.850
9.613	386.909	-4.850
9.621	387.079	-4.851
9.629	387.242	-4.851
9.638	387.408	-4.851
9.646	387.577	-4.852
9.654	387.745	-4.853
9.663	387.908	-4.853
9.671	388.081	-4.854
9.679	388.251	-4.855
9.688	388.420	-4.855
9.696	388.588	-4.856
9.704	388.755	-4.856
9.713	388.925	-4.857
9.721	389.092	-4.857
9.729	389.260	-4.858
9.738	389.427	-4.858
9.746	389.597	-4.858
9.754	389.764	-4.858
9.763	389.931	-4.859
9.771	390.098	-4.859
9.779	390.269	-4.860
9.788	390.438	-4.861
9.796	390.602	-4.861
9.804	390.773	-4.862
9.813	390.940	-4.862
9.821	391.111	-4.863
9.829	391.277	-4.863
9.838	391.445	-4.864
9.846	391.618	-4.865
9.854	391.784	-4.865
9.863	391.953	-4.866
9.871	392.116	-4.866
9.879	392.291	-4.867
9.888	392.455	-4.867
9.896	392.618	-4.868
9.904	392.790	-4.869
9.913	392.957	-4.869
9.921	393.127	-4.870
9.929	393.293	-4.871
9.938	393.463	-4.871
9.946	393.630	-4.872
9.954	393.802	-4.872
9.963	393.968	-4.873
9.971	394.133	-4.874
9.979	394.302	-4.874
9.988	394.477	-4.875
9.996	394.646	-4.875
10.004	394.812	-4.876
10.013	394.979	-4.876
10.021	395.148	-4.877
10.029	395.315	-4.878
10.038	395.486	-4.879
10.046	395.653	-4.879
10.054	395.823	-4.880
10.063	395.991	-4.880
10.071	396.160	-4.881
10.079	396.329	-4.882
10.088	396.500	-4.883
10.096	396.668	-4.883
10.104	396.833	-4.884
10.113	396.999	-4.884
10.121	397.171	-4.885
10.129	397.333	-4.885
10.138	397.502	-4.886
10.146	397.669	-4.886
10.154	397.841	-4.887
10.163	398.008	-4.888
10.171	398.175	-4.888
10.179	398.344	-4.889
10.188	398.513	-4.890
10.196	398.685	-4.891
10.204	398.852	-4.891
10.213	399.018	-4.892
10.221	399.186	-4.892
10.229	399.357	-4.893
10.238	399.522	-4.893
10.246	399.691	-4.894
10.254	399.857	-4.894
10.263	400.024	-4.895
10.271	400.193	-4.896
10.279	400.359	-4.896
10.288	400.533	-4.898
10.296	400.703	-4.899
10.304	400.869	-4.899
10.313	401.036	-4.900
10.321	401.204	-4.901
10.329	401.374	-4.902
10.338	401.545	-4.903
10.346	401.715	-4.904
10.354	401.883	-4.905
10.363	402.048	-4.905
10.371	402.217	-4.906
10.379	402.383	-4.907
10.388	402.551	-4.907
10.396	402.723	-4.909
10.404	402.892	-4.909
10.413	403.057	-4.910
10.421	403.224	-4.910
10.429	403.395	-4.911
10.438	403.561	-4.912
10.446	403.728	-4.913
10.454	403.899	-4.913
10.463	404.066	-4.914
10.471	404.237	-4.915
10.479	404.401	-4.915
10.488	404.574	-4.916
10.496	404.745	-4.916
10.504	404.910	-4.917
10.513	405.077	-4.918
10.521	405.241	-4.918
10.529	405.408	-4.919
10.538	405.580	-4.920
10.546	405.744	-4.921
10.554	405.915	-4.922
10.563	406.082	-4.923
10.571	406.251	-4.924
10.579	406.419	-4.925
10.588	406.586	-4.926
10.596	406.751	-4.927
10.604	406.924	-4.928
10.613	407.089	-4.928
10.621	407.258	-4.930
10.629	407.423	-4.930
10.638	407.596	-4.931
10.646	407.766	-4.932
10.654	407.934	-4.932
10.663	408.099	-4.933
10.671	408.266	-4.934
10.679	408.438	-4.935
10.688	408.609	-4.936
10.696	408.776	-4.936
10.704	408.941	-4.936
10.713	409.110	-4.937
10.721	409.279	-4.938
10.729	409.449	-4.939
10.738	409.616	-4.940
10.746	409.781	-4.940
10.754	409.945	-4.941
10.763	410.117	-4.942
10.771	410.284	-4.943
10.779	410.459	-4.944
10.788	410.626	-4.945
10.796	410.790	-4.945
10.804	410.962	-4.946
10.813	411.127	-4.947
10.821	411.297	-4.948
10.829	411.465	-4.948
10.838	411.629	-4.948
10.846	411.798	-4.949
10.854	411.971	-4.950
10.863	412.136	-4.951
10.871	412.306	-4.952
10.879	412.472	-4.952
10.888	412.643	-4.953
10.896	412.811	-4.954
10.904	412.976	-4.955
10.913	413.142	-4.955
10.921	413.313	-4.956
10.929	413.480	-4.957
10.938	413.649	-4.957
10.946	413.819	-4.958
10.954	413.985	-4.958
10.963	414.149	-4.958
10.971	414.325	-4.959
10.979	414.493	-4.959
10.988	414.657	-4.959
10.996	414.825	-4.960
11.004	414.996	-4.961
11.013	415.165	-4.962
11.021	415.332	-4.962
11.029	415.497	-4.963
11.038	415.669	-4.964
11.046	415.835	-4.964
11.054	415.999	-4.965
11.063	416.169	-4.965
11.071	416.337	-4.966
11.079	416.503	-4.966
11.088	416.671	-4.966
11.096	416.841	-4.967
11.104	417.009	-4.967
11.113	417.178	-4.968
11.121	417.342	-4.968
11.129	417.508	-4.968
11.138	417.677	-4.969
11.146	417.851	-4.969
11.154	418.014	-4.969
11.163	418.181	-4.970
11.171	418.349	-4.970
11.179	418.515	-4.970
11.188	418.688	-4.971
11.196	418.857	-4.971
11.204	419.024	-4.971
11.213	419.193	-4.972
11.221	419.360	-4.972
11.229	419.528	-4.973
11.238	419.692	-4.973
11.246	419.862	-4.974
11.254	420.028	-4.974
11.263	420.197	-4.975
11.271	420.365	-4.975
11.279	420.539	-4.976
11.288	420.698	-4.976
11.296	420.871	-4.977
11.304	421.037	-4.977
11.313	421.206	-4.977
11.321	421.370	-4.978
11.329	421.543	-4.978
11.338	421.709	-4.979
11.346	421.880	-4.979
11.354	422.046	-4.979
11.363	422.215	-4.980
11.371	422.385	-4.980
11.379	422.557	-4.980
11.388	422.722	-4.979
11.396	422.889	-4.979
11.404	423.060	-4.979
11.413	423.224	-4.978
11.421	423.395	-4.978
11.429	423.564	-4.978
11.438	423.726	-4.977
11.446	423.895	-4.977
11.454	424.065	-4.977
11.463	424.231	-4.977
11.471	424.395	-4.977
11.479	424.566	-4.978
11.488	424.729	-4.977
11.496	424.902	-4.977
11.504	425.071	-4.977
11.513	425.238	-4.977
11.521	425.407	-4.976
11.529	425.576	-4.976
11.538	425.741	-4.976
11.546	425.911	-4.975
11.554	426.072	-4.974
11.563	426.248	-4.974
11.571	426.415	-4.974
11.579	426.584	-4.973
11.588	426.748	-4.972
11.596	426.908	-4.971
11.604	427.080	-4.971
11.613	427.247	-4.970
11.621	427.417	-4.969
11.629	427.584	-4.969
11.638	427.757	-4.969
11.646	427.924	-4.968
11.654	428.092	-4.967
11.663	428.258	-4.966
11.671	428.426	-4.966
11.679	428.593	-4.965
11.688	428.761	-4.964
11.696	428.930	-4.964
11.704	429.101	-4.963
11.713	429.269	-4.962
11.721	429.434	-4.961
11.729	429.605	-4.961
11.738	429.770	-4.961
11.746	429.940	-4.961
11.754	430.111	-4.961
11.763	430.274	-4.960
11.771	430.444	-4.960
11.779	430.611	-4.960
11.788	430.777	-4.960
11.796	430.942	-4.960
11.804	431.114	-4.960
11.813	431.283	-4.960
11.821	431.452	-4.961
11.829	431.620	-4.961
11.838	431.788	-4.961
11.846	431.959	-4.961
11.854	432.124	-4.961
11.863	432.291	-4.961
11.871	432.459	-4.961
11.879	432.625	-4.962
11.888	432.789	-4.961
11.896	432.962	-4.962
11.904	433.125	-4.962
11.913	433.297	-4.962
11.921	433.463	-4.962
11.929	433.628	-4.962
11.938	433.798	-4.963
11.946	433.964	-4.963
11.954	434.133	-4.963
11.963	434.302	-4.963
11.971	434.467	-4.963
11.979	434.640	-4.964
11.988	434.804	-4.964
11.996	434.977	-4.965
12.004	435.143	-4.965
12.013	435.306	-4.966
12.021	435.477	-4.967
12.029	435.648	-4.968
12.038	435.809	-4.968
12.046	435.979	-4.969
12.054	436.141	-4.970
12.063	436.309	-4.971
12.071	436.476	-4.972
12.079	436.642	-4.973
12.088	436.811	-4.975
12.096	436.982	-4.976
12.104	437.146	-4.977
12.113	437.317	-4.979
12.121	437.484	-4.981
12.129	437.655	-4.983
12.138	437.818	-4.985
12.146	437.983	-4.986
12.154	438.150	-4.988
12.163	438.317	-4.990
12.171	438.483	-4.992
12.179	438.653	-4.994
12.188	438.828	-4.997
12.196	438.986	-4.998
12.204	439.150	-5.000
12.213	439.324	-5.003
12.221	439.491	-5.005
12.229	439.657	-5.007
12.238	439.828	-5.010
12.246	439.989	-5.011
12.254	440.159	-5.014
12.263	440.327	-5.015
12.271	440.492	-5.017
12.279	440.663	-5.019
12.288	440.832	-5.021
12.296	441.002	-5.023
12.304	441.161	-5.024
12.313	441.327	-5.026
12.321	441.494	-5.027
12.329	441.663	-5.029
12.338	441.831	-5.030
12.346	441.999	-5.031
12.354	442.168	-5.032
12.363	442.337	-5.033
12.371	442.502	-5.034
12.379	442.668	-5.036
12.388	442.837	-5.037
12.396	443.005	-5.038
12.404	443.172	-5.039
12.413	443.341	-5.040
12.421	443.506	-5.041
12.429	443.675	-5.042
12.438	443.843	-5.043
12.446	444.010	-5.044
12.454	444.174	-5.045
12.463	444.342	-5.046
12.471	444.512	-5.047
12.479	444.680	-5.048
12.488	444.850	-5.049
12.496	445.019	-5.050
12.504	445.189	-5.051
12.513	445.354	-5.051
12.521	445.515	-5.052
12.529	445.687	-5.053
12.538	445.848	-5.053
12.546	446.018	-5.054
12.554	446.186	-5.055
12.563	446.356	-5.056
12.571	446.518	-5.056
12.579	446.689	-5.057
12.588	446.858	-5.057
12.596	447.024	-5.058
12.604	447.191	-5.058
12.613	447.359	-5.059
12.621	447.528	-5.060
12.629	447.693	-5.060
12.638	447.861	-5.061
12.646	448.029	-5.061
12.654	448.197	-5.062
12.663	448.364	-5.063
12.671	448.532	-5.064
12.679	448.700	-5.064
12.688	448.867	-5.064
12.696	449.038	-5.065
12.704	449.205	-5.065
12.713	449.371	-5.065
12.721	449.542	-5.065
12.729	449.707	-5.065
12.738	449.874	-5.065
12.746	450.043	-5.065
12.754	450.208	-5.065
12.763	450.375	-5.065
12.771	450.547	-5.065
12.779	450.709	-5.065
12.788	450.882	-5.065
12.796	451.047	-5.065
12.804	451.217	-5.065
12.813	451.383	-5.065
12.821	451.550	-5.065
12.829	451.720	-5.066
12.838	451.888	-5.066
12.846	452.054	-5.066
12.854	452.227	-5.066
12.863	452.394	-5.066
12.871	452.559	-5.067
12.879	452.734	-5.067
12.888	452.894	-5.067
12.896	453.062	-5.067
12.904	453.234	-5.068
12.913	453.399	-5.068
12.921	453.562	-5.068
12.929	453.734	-5.068
12.938	453.901	-5.068
12.946	454.068	-5.068
12.954	454.233	-5.068
12.963	454.404	-5.068
12.971	454.568	-5.068
12.979	454.736	-5.068
12.988	454.904	-5.068
12.996	455.073	-5.068
13.004	455.241	-5.068
13.013	455.408	-5.068
13.021	455.571	-5.068
13.029	455.741	-5.069
13.038	455.913	-5.069
13.046	456.073	-5.068
13.054	456.249	-5.069
13.063	456.411	-5.068
13.071	456.581	-5.068
13.079	456.751	-5.068
13.088	456.917	-5.068
13.096	457.089	-5.068
13.104	457.257	-5.068
13.113	457.420	-5.067
13.121	457.586	-5.067
13.129	457.754	-5.068
13.138	457.928	-5.068
13.146	458.093	-5.068
13.154	458.257	-5.067
13.163	458.426	-5.067
13.171	458.597	-5.068
13.179	458.766	-5.067
13.188	458.932	-5.068
13.196	459.098	-5.068
13.204	459.265	-5.068
13.213	459.431	-5.067
13.221	459.601	-5.066
13.229	459.771	-5.066
13.238	459.940	-5.066
13.246	460.109	-5.066
13.254	460.272	-5.066
13.263	460.442	-5.066
13.271	460.609	-5.066
13.279	460.775	-5.065
13.288	460.945	-5.065
13.296	461.110	-5.065
13.304	461.275	-5.066
13.313	461.444	-5.066
13.321	461.613	-5.066
13.329	461.775	-5.066
13.338	461.946	-5.066
13.346	462.109	-5.065
13.354	462.279	-5.065
13.363	462.447	-5.065
13.371	462.617	-5.065
13.379	462.782	-5.065
13.388	462.945	-5.064
13.396	463.120	-5.064
13.404	463.286	-5.064
13.413	463.455	-5.064
13.421	463.624	-5.063
13.429	463.790	-5.062
13.438	463.958	-5.062
13.446	464.129	-5.062
13.454	464.292	-5.061
13.463	464.461	-5.061
13.471	464.629	-5.060
13.479	464.797	-5.060
13.488	464.967	-5.060
13.496	465.132	-5.059
13.504	465.298	-5.059
13.513	465.467	-5.059
13.521	465.635	-5.059
13.529	465.803	-5.059
13.538	465.970	-5.058
13.546	466.138	-5.058
13.554	466.302	-5.058
13.563	466.474	-5.058
13.571	466.637	-5.057
13.579	466.802	-5.056
13.588	466.973	-5.056
13.596	467.138	-5.055
13.604	467.308	-5.055
13.613	467.477	-5.054
13.621	467.644	-5.054
13.629	467.813	-5.053
13.638	467.982	-5.053
13.646	468.150	-5.052
13.654	468.318	-5.052
13.663	468.483	-5.051
13.671	468.652	-5.051
13.679	468.819	-5.051
13.688	468.993	-5.051
13.696	469.155	-5.050
13.704	469.325	-5.049
13.713	469.494	-5.048
13.721	469.658	-5.047
13.729	469.828	-5.047
13.738	469.997	-5.046
13.746	470.164	-5.045
13.754	470.329	-5.044
13.763	470.500	-5.043
13.771	470.672	-5.042
13.779	470.832	-5.041
13.788	471.001	-5.040
13.796	471.169	-5.040
13.804	471.336	-5.039
13.813	471.510	-5.039
13.821	471.674	-5.038
13.829	471.842	-5.037
13.838	472.006	-5.036
13.846	472.174	-5.035
13.854	472.346	-5.035
13.863	472.514	-5.034
13.871	472.676	-5.032
13.879	472.839	-5.031
13.888	473.009	-5.030
13.896	473.171	-5.028
13.904	473.346	-5.027
13.913	473.508	-5.026
13.921	473.674	-5.025
13.929	473.845	-5.024
13.938	474.014	-5.023
13.946	474.191	-5.022
13.954	474.358	-5.021
13.963	474.526	-5.020
13.971	474.693	-5.019
13.979	474.864	-5.018
13.988	475.031	-5.017
13.996	475.201	-5.015
14.004	475.368	-5.014
14.013	475.534	-5.012
14.021	475.705	-5.012
14.029	475.870	-5.010
14.038	476.040	-5.009
14.046	476.203	-5.008
14.054	476.377	-5.008
14.063	476.542	-5.007
14.071	476.711	-5.007
14.079	476.877	-5.006
14.088	477.048	-5.006
14.096	477.212	-5.005
14.104	477.381	-5.004
14.113	477.544	-5.003
14.121	477.717	-5.003
14.129	477.885	-5.002
14.138	478.053	-5.001
14.146	478.218	-4.999
14.154	478.388	-4.999
14.163	478.554	-4.997
14.171	478.721	-4.996
14.179	478.892	-4.995
14.188	479.059	-4.994
14.196	479.227	-4.992
14.204	479.394	-4.991
14.213	479.563	-4.990
14.221	479.733	-4.989
14.229	479.897	-4.988
14.238	480.066	-4.987
14.246	480.234	-4.987
14.254	480.401	-4.986
14.263	480.572	-4.985
14.271	480.736	-4.985
14.279	480.899	-4.983
14.288	481.068	-4.983
14.296	481.239	-4.982
14.304	481.408	-4.981
14.313	481.575	-4.980
14.321	481.744	-4.978
14.329	481.916	-4.978
14.338	482.082	-4.977
14.346	482.247	-4.975
14.354	482.411	-4.974
14.363	482.579	-4.973
14.371	482.748	-4.972
14.379	482.915	-4.971
14.388	483.083	-4.969
14.396	483.254	-4.968
14.404	483.424	-4.967
14.413	483.586	-4.965
14.421	483.756	-4.964
14.429	483.924	-4.962
14.438	484.089	-4.960
14.446	484.262	-4.959
14.454	484.430	-4.958
14.463	484.599	-4.956
14.471	484.767	-4.955
14.479	484.936	-4.953
14.488	485.099	-4.952
14.496	485.268	-4.951
14.504	485.439	-4.949
14.513	485.605	-4.948
14.521	485.767	-4.947
14.529	485.939	-4.946
14.538	486.106	-4.945
14.546	486.276	-4.944
14.554	486.444	-4.942
14.563	486.609	-4.941
14.571	486.781	-4.939
14.579	486.945	-4.937
14.588	487.116	-4.936
14.596	487.278	-4.934
14.604	487.448	-4.932
14.613	487.616	-4.930
14.621	487.786	-4.928
14.629	487.951	-4.927
14.638	488.121	-4.925
14.646	488.287	-4.924
14.654	488.459	-4.923
14.663	488.623	-4.921
14.671	488.795	-4.920
14.679	488.963	-4.919
14.688	489.130	-4.918
14.696	489.298	-4.916
14.704	489.465	-4.915
14.713	489.631	-4.914
14.721	489.798	-4.912
14.729	489.965	-4.911
14.738	490.136	-4.909
14.746	490.307	-4.908
14.754	490.469	-4.907
14.763	490.639	-4.906
14.771	490.804	-4.904
14.779	490.974	-4.903
14.788	491.143	-4.902
14.796	491.312	-4.901
14.804	491.479	-4.899
14.813	491.650	-4.898
14.821	491.813	-4.897
14.829	491.983	-4.896
14.838	492.152	-4.894
14.846	492.318	-4.892
14.854	492.483	-4.890
14.863	492.657	-4.889
14.871	492.829	-4.888
14.879	492.991	-4.885
14.888	493.159	-4.884
14.896	493.326	-4.882
14.904	493.496	-4.881
14.913	493.664	-4.879
14.921	493.831	-4.877
14.929	493.999	-4.876
14.938	494.169	-4.874
14.946	494.334	-4.873
14.954	494.503	-4.871
14.963	494.672	-4.869
14.971	494.841	-4.868
14.979	495.004	-4.866
14.988	495.173	-4.865
14.996	495.340	-4.864
15.004	495.511	-4.862
15.013	495.678	-4.861
15.021	495.843	-4.859
15.029	496.013	-4.857
15.038	496.180	-4.855
15.046	496.347	-4.854
15.054	496.516	-4.852
15.063	496.681	-4.850
15.071	496.849	-4.848
15.079	497.019	-4.847
15.088	497.185	-4.845
15.096	497.353	-4.843
15.104	497.522	-4.841
15.113	497.688	-4.839
15.121	497.856	-4.837
15.129	498.020	-4.835
15.138	498.192	-4.833
15.146	498.360	-4.831
15.154	498.528	-4.829
15.163	498.698	-4.827
15.171	498.866	-4.825
15.179	499.032	-4.823
15.188	499.200	-4.821
15.196	499.370	-4.819
15.204	499.537	-4.817
15.213	499.704	-4.815
15.221	499.872	-4.813
15.229	500.039	-4.810
15.238	500.206	-4.808
15.246	500.378	-4.805
15.254	500.541	-4.803
15.263	500.711	-4.801
15.271	500.877	-4.799
15.279	501.047	-4.797
15.288	501.212	-4.794
15.296	501.379	-4.792
15.304	501.547	-4.790
15.313	501.714	-4.788
15.321	501.884	-4.786
15.329	502.052	-4.784
15.338	502.215	-4.781
15.346	502.389	-4.779
15.354	502.555	-4.776
15.363	502.724	-4.774
15.371	502.894	-4.773
15.379	503.064	-4.770
15.388	503.229	-4.768
15.396	503.398	-4.766
15.404	503.568	-4.764
15.413	503.735	-4.762
15.421	503.900	-4.760
15.429	504.067	-4.758
15.438	504.241	-4.756
15.446	504.406	-4.754
15.454	504.573	-4.751
15.463	504.741	-4.749
15.471	504.910	-4.747
15.479	505.074	-4.745
15.488	505.247	-4.743
15.496	505.411	-4.741
15.504	505.581	-4.739
15.513	505.750	-4.737
15.521	505.917	-4.735
15.529	506.083	-4.733
15.538	506.254	-4.731
15.546	506.418	-4.729
15.554	506.590	-4.727
15.563	506.753	-4.725
15.571	506.922	-4.722
15.579	507.092	-4.720
15.588	507.260	-4.718
15.596	507.427	-4.716
15.604	507.596	-4.714
15.613	507.761	-4.712
15.621	507.928	-4.709
15.629	508.096	-4.707
15.638	508.264	-4.705
15.646	508.432	-4.702
15.654	508.598	-4.700
15.663	508.766	-4.698
15.671	508.932	-4.695
15.679	509.104	-4.693
15.688	509.271	-4.690
15.696	509.436	-4.687
15.704	509.603	-4.685
15.713	509.773	-4.683
15.721	509.944	-4.681
15.729	510.108	-4.678
15.738	510.274	-4.676
15.746	510.443	-4.673
15.754	510.613	-4.672
15.763	510.782	-4.669
15.771	510.946	-4.667
15.779	511.115	-4.664
15.788	511.282	-4.662
15.796	511.449	-4.659
15.804	511.619	-4.656
15.813	511.784	-4.654
15.821	511.953	-4.651
15.829	512.122	-4.649
15.838	512.286	-4.646
15.846	512.458	-4.644
15.854	512.625	-4.641
15.863	512.791	-4.639
15.871	512.963	-4.637
15.879	513.125	-4.634
15.888	513.294	-4.632
15.896	513.461	-4.629
15.904	513.627	-4.626
15.913	513.797	-4.624
15.921	513.964	-4.621
15.929	514.134	-4.619
15.938	514.298	-4.616
15.946	514.468	-4.613
15.954	514.632	-4.610
15.963	514.799	-4.607
15.971	514.968	-4.604
15.979	515.136	-4.602
15.988	515.309	-4.599
15.996	515.472	-4.596
16.004	515.644	-4.594
16.013	515.808	-4.591
16.021	515.979	-4.588
16.029	516.144	-4.585
16.038	516.313	-4.583
16.046	516.479	-4.580
16.054	516.648	-4.578
16.063	516.817	-4.575
16.071	516.982	-4.572
16.079	517.146	-4.569
16.088	517.315	-4.566
16.096	517.486	-4.563
16.104	517.657	-4.560
16.113	517.818	-4.557
16.121	517.987	-4.554
16.129	518.158	-4.551
16.138	518.322	-4.548
16.146	518.489	-4.545
16.154	518.659	-4.542
16.163	518.826	-4.539
16.171	518.996	-4.536
16.179	519.163	-4.534
16.188	519.329	-4.530
16.196	519.499	-4.527
16.204	519.665	-4.523
16.213	519.831	-4.520
16.221	520.001	-4.516
16.229	520.166	-4.512
16.238	520.334	-4.509
16.246	520.500	-4.505
16.254	520.672	-4.502
16.263	520.839	-4.498
16.271	521.007	-4.494
16.279	521.173	-4.490
16.288	521.344	-4.486
16.296	521.513	-4.483
16.304	521.676	-4.480
16.313	521.846	-4.476
16.321	522.010	-4.473
16.329	522.181	-4.469
16.338	522.351	-4.466
16.346	522.514	-4.462
16.354	522.685	-4.459
16.363	522.851	-4.456
16.371	523.016	-4.453
16.379	523.184	-4.449
16.388	523.353	-4.445
16.396	523.517	-4.441
16.404	523.690	-4.437
16.413	523.861	-4.434
16.421	524.023	-4.430
16.429	524.189	-4.426
16.438	524.355	-4.422
16.446	524.529	-4.418
16.454	524.698	-4.414
16.463	524.861	-4.409
16.471	525.030	-4.406
16.479	525.193	-4.402
16.488	525.361	-4.398
16.496	525.530	-4.394
16.504	525.696	-4.390
16.513	525.867	-4.386
16.521	526.037	-4.382
16.529	526.205	-4.378
16.538	526.369	-4.375
16.546	526.539	-4.371
16.554	526.704	-4.367
16.563	526.875	-4.363
16.571	527.040	-4.358
16.579	527.209	-4.354
16.588	527.375	-4.350
16.596	527.544	-4.347
16.604	527.708	-4.342
16.613	527.879	-4.338
16.621	528.047	-4.334
16.629	528.213	-4.329
16.638	528.380	-4.325
16.646	528.553	-4.320
16.654	528.717	-4.316
16.663	528.885	-4.312
16.671	529.053	-4.307
16.679	529.225	-4.302
16.688	529.389	-4.298
16.696	529.558	-4.293
16.704	529.725	-4.289
16.713	529.894	-4.284
16.721	530.057	-4.280
16.729	530.231	-4.275
16.738	530.391	-4.270
16.746	530.564	-4.266
16.754	530.730	-4.262
16.763	530.900	-4.257
16.771	531.065	-4.253
16.779	531.235	-4.248
16.788	531.401	-4.243
16.796	531.571	-4.239
16.804	531.738	-4.234
16.813	531.907	-4.230
16.821	532.072	-4.226
16.829	532.242	-4.221
16.838	532.408	-4.217
16.846	532.576	-4.212
16.854	532.748	-4.207
16.863	532.910	-4.202
16.871	533.078	-4.198
16.879	533.252	-4.193
16.888	533.414	-4.188
16.896	533.583	-4.184
16.904	533.750	-4.179
16.913	533.918	-4.174
16.921	534.085	-4.170
16.929	534.252	-4.165
16.938	534.418	-4.161
16.946	534.588	-4.156
16.954	534.758	-4.152
16.963	534.922	-4.147
16.971	535.091	-4.143
16.979	535.260	-4.139
16.988	535.426	-4.135
16.996	535.597	-4.131
17.004	535.763	-4.127
17.013	535.929	-4.123
17.021	536.098	-4.118
17.029	536.268	-4.114
17.038	536.434	-4.111
17.046	536.602	-4.106
17.054	536.771	-4.102
17.063	536.939	-4.098
17.071	537.104	-4.094
17.079	537.273	-4.089
17.088	537.438	-4.085
17.096	537.608	-4.081
17.104	537.777	-4.078
17.113	537.944	-4.074
17.121	538.116	-4.069
17.129	538.280	-4.065
17.138	538.449	-4.062
17.146	538.621	-4.058
17.154	538.785	-4.054
17.163	538.949	-4.050
17.171	539.117	-4.046
17.179	539.286	-4.042
17.188	539.459	-4.039
17.196	539.627	-4.035
17.204	539.793	-4.032
17.213	539.956	-4.028
17.221	540.128	-4.024
17.229	540.296	-4.021
17.238	540.464	-4.017
17.246	540.626	-4.013
17.254	540.795	-4.010
17.263	540.963	-4.006
17.271	541.126	-4.003
17.279	541.298	-3.999
17.288	541.466	-3.996
17.296	541.632	-3.992
17.304	541.802	-3.989
17.313	541.969	-3.985
17.321	542.131	-3.982
17.329	542.301	-3.978
17.338	542.470	-3.975
17.346	542.635	-3.972
17.354	542.807	-3.969
17.363	542.975	-3.966
17.371	543.135	-3.963
17.379	543.306	-3.960
17.388	543.473	-3.957
17.396	543.642	-3.954
17.404	543.808	-3.951
17.413	543.980	-3.949
17.421	544.146	-3.946
17.429	544.312	-3.942
17.438	544.477	-3.939
17.446	544.647	-3.936
17.454	544.814	-3.932
17.463	544.982	-3.929
17.471	545.151	-3.925
17.479	545.317	-3.921
17.488	545.486	-3.918
17.496	545.654	-3.914
17.504	545.823	-3.911
17.513	545.991	-3.907
17.521	546.155	-3.904
17.529	546.321	-3.901
17.538	546.492	-3.899
17.546	546.657	-3.895
17.554	546.824	-3.893
17.563	546.990	-3.890
17.571	547.163	-3.887
17.579	547.329	-3.885
17.588	547.499	-3.882
17.596	547.662	-3.879
17.604	547.829	-3.876
17.613	547.995	-3.873
17.621	548.164	-3.870
17.629	548.331	-3.868
17.638	548.508	-3.865
17.646	548.669	-3.862
17.654	548.836	-3.859
17.663	549.003	-3.857
17.671	549.170	-3.855
17.679	549.340	-3.852
17.688	549.505	-3.849
17.696	549.673	-3.847
17.704	549.843	-3.844
17.713	550.008	-3.841
17.721	550.176	-3.839
17.729	550.344	-3.836
17.738	550.514	-3.834
17.746	550.680	-3.831
17.754	550.846	-3.828
17.763	551.013	-3.826
17.771	551.183	-3.824
17.779	551.347	-3.822
17.788	551.515	-3.820
17.796	551.681	-3.818
17.804	551.850	-3.815
17.813	552.017	-3.813
17.821	552.185	-3.812
17.829	552.350	-3.809
17.838	552.519	-3.807
17.846	552.693	-3.805
17.854	552.853	-3.803
17.863	553.023	-3.801
17.871	553.188	-3.798
17.879	553.356	-3.797
17.888	553.527	-3.795
17.896	553.692	-3.792
17.904	553.858	-3.790
17.913	554.025	-3.788
17.921	554.197	-3.786
17.929	554.361	-3.784
17.938	554.528	-3.783
17.946	554.698	-3.781
17.954	554.866	-3.779
17.963	555.031	-3.777
17.971	555.200	-3.776
17.979	555.367	-3.774
17.988	555.532	-3.773
17.996	555.702	-3.771
18.004	555.872	-3.769
18.013	556.038	-3.767
18.021	556.209	-3.765
18.029	556.368	-3.763
18.038	556.538	-3.761
18.046	556.709	-3.759
18.054	556.880	-3.757
18.063	557.045	-3.755
18.071	557.212	-3.752
18.079	557.375	-3.750
18.088	557.545	-3.748
18.096	557.717	-3.747
18.104	557.879	-3.745
18.113	558.049	-3.743
18.121	558.215	-3.740
18.129	558.381	-3.739
18.138	558.546	-3.737
18.146	558.717	-3.736
18.154	558.884	-3.734
18.163	559.052	-3.732
18.171	559.222	-3.731
18.179	559.386	-3.730
18.188	559.557	-3.728
18.196	559.724	-3.727
18.204	559.893	-3.725
18.213	560.058	-3.724
18.221	560.227	-3.723
18.229	560.393	-3.721
18.238	560.560	-3.720
18.246	560.726	-3.719
18.254	560.894	-3.718
18.263	561.061	-3.716
18.271	561.225	-3.715
18.279	561.397	-3.714
18.288	561.566	-3.713
18.296	561.733	-3.711
18.304	561.898	-3.710
18.313	562.069	-3.708
18.321	562.234	-3.707
18.329	562.405	-3.706
18.338	562.566	-3.704
18.346	562.731	-3.703
18.354	562.901	-3.702
18.363	563.067	-3.700
18.371	563.235	-3.699
18.379	563.400	-3.697
18.388	563.572	-3.695
18.396	563.741	-3.693
18.404	563.905	-3.692
18.413	564.071	-3.690
18.421	564.239	-3.688
18.429	564.408	-3.686
18.438	564.571	-3.684
18.446	564.739	-3.682
18.454	564.901	-3.680
18.463	565.078	-3.679
18.471	565.245	-3.677
18.479	565.414	-3.676
18.488	565.580	-3.674
18.496	565.745	-3.673
18.504	565.912	-3.672
18.513	566.081	-3.670
18.521	566.248	-3.669
18.529	566.417	-3.668
18.538	566.583	-3.667
18.546	566.747	-3.666
18.554	566.913	-3.665
18.563	567.083	-3.664
18.571	567.252	-3.663
18.579	567.413	-3.661
18.588	567.585	-3.661
18.596	567.753	-3.660
18.604	567.923	-3.660
18.613	568.089	-3.659
18.621	568.258	-3.657
18.629	568.426	-3.656
18.638	568.597	-3.656
18.646	568.757	-3.655
18.654	568.928	-3.654
18.663	569.096	-3.653
18.671	569.263	-3.653
18.679	569.431	-3.652
18.688	569.596	-3.651
18.696	569.762	-3.650
18.704	569.929	-3.649
18.713	570.098	-3.648
18.721	570.264	-3.647
18.729	570.431	-3.646
18.738	570.598	-3.645
18.746	570.768	-3.644
18.754	570.936	-3.643
18.763	571.102	-3.642
18.771	571.269	-3.642
18.779	571.436	-3.642
18.788	571.602	-3.641
18.796	571.772	-3.641
18.804	571.939	-3.641
18.813	572.106	-3.641
18.821	572.274	-3.641
18.829	572.442	-3.641
18.838	572.608	-3.640
18.846	572.774	-3.639
18.854	572.947	-3.639
18.863	573.115	-3.638
18.871	573.279	-3.638
18.879	573.450	-3.637
18.888	573.613	-3.636
18.896	573.781	-3.635
18.904	573.952	-3.635
18.913	574.115	-3.634
18.921	574.287	-3.633
18.929	574.455	-3.632
18.938	574.619	-3.631
18.946	574.788	-3.631
18.954	574.954	-3.631
18.963	575.118	-3.630
18.971	575.287	-3.630
18.979	575.461	-3.630
18.988	575.627	-3.629
18.996	575.794	-3.628
19.004	575.961	-3.628
19.013	576.127	-3.628
19.021	576.297	-3.627
19.029	576.466	-3.627
19.038	576.632	-3.626
19.046	576.796	-3.625
19.054	576.963	-3.625
19.063	577.130	-3.624
19.071	577.302	-3.624
19.079	577.469	-3.623
19.088	577.636	-3.623
19.096	577.805	-3.622
19.104	577.972	-3.622
19.113	578.138	-3.622
19.121	578.305	-3.622
19.129	578.474	-3.622
19.138	578.643	-3.622
19.146	578.809	-3.622
19.154	578.976	-3.623
19.163	579.142	-3.623
19.171	579.310	-3.623
19.179	579.482	-3.623
19.188	579.647	-3.623
19.196	579.816	-3.623
19.204	579.981	-3.623
19.213	580.148	-3.623
19.221	580.315	-3.623
19.229	580.484	-3.622
19.238	580.653	-3.622
19.246	580.821	-3.623
19.254	580.989	-3.623
19.263	581.158	-3.624
19.271	581.325	-3.624
19.279	581.494	-3.625
19.288	581.661	-3.625
19.296	581.828	-3.626
19.304	581.994	-3.627
19.313	582.162	-3.628
19.321	582.326	-3.629
19.329	582.498	-3.630
19.338	582.666	-3.631
19.346	582.831	-3.632
19.354	582.999	-3.634
19.363	583.164	-3.635
19.371	583.333	-3.636
19.379	583.500	-3.637
19.388	583.669	-3.638
19.396	583.834	-3.639
19.404	584.004	-3.640
19.413	584.171	-3.641
19.421	584.339	-3.642
19.429	584.506	-3.642
19.438	584.673	-3.643
19.446	584.840	-3.643
19.454	585.007	-3.643
19.463	585.176	-3.644
19.471	585.346	-3.644
19.479	585.511	-3.644
19.488	585.679	-3.644
19.496	585.847	-3.645
19.504	586.014	-3.645
19.513	586.181	-3.646
19.521	586.349	-3.646
19.529	586.514	-3.647
19.538	586.682	-3.647
19.546	586.850	-3.648
19.554	587.019	-3.650
19.563	587.182	-3.651
19.571	587.349	-3.653
19.579	587.518	-3.654
19.588	587.687	-3.656
19.596	587.854	-3.658
19.604	588.024	-3.660
19.613	588.188	-3.662
19.621	588.354	-3.664
19.629	588.516	-3.667
19.638	588.689	-3.668
19.646	588.857	-3.670
19.654	589.023	-3.671
19.663	589.194	-3.674
19.671	589.361	-3.675
19.679	589.528	-3.677
19.688	589.694	-3.678
19.696	589.860	-3.680
19.704	590.027	-3.681
19.713	590.194	-3.683
19.721	590.361	-3.686
19.729	590.530	-3.689
19.738	590.700	-3.692
19.746	590.862	-3.694
19.754	591.031	-3.698
19.763	591.200	-3.701
19.771	591.367	-3.704
19.779	591.535	-3.707
19.788	591.705	-3.710
19.796	591.871	-3.712
19.804	592.036	-3.713
19.813	592.204	-3.714
19.821	592.374	-3.716
19.829	592.545	-3.717
19.838	592.711	-3.719
19.846	592.879	-3.720
19.854	593.046	-3.720
19.863	593.210	-3.719
19.871	593.381	-3.719
19.879	593.546	-3.720
19.888	593.716	-3.720
19.896	593.877	-3.722
19.904	594.046	-3.723
19.913	594.215	-3.725
19.921	594.381	-3.725
19.929	594.548	-3.727
19.938	594.719	-3.729
19.946	594.884	-3.732
19.954	595.054	-3.734
19.963	595.219	-3.736
19.971	595.385	-3.739
19.979	595.547	-3.741
19.988	595.720	-3.743
19.996	595.885	-3.744
20.004	596.047	-3.746
20.013	596.224	-3.748
20.021	596.388	-3.749
20.029	596.552	-3.751
20.038	596.721	-3.754
20.046	596.892	-3.756
20.054	597.062	-3.759
20.063	597.224	-3.761
20.071	597.391	-3.763
20.079	597.565	-3.765
20.088	597.728	-3.767
20.096	597.892	-3.769
20.104	598.066	-3.772
20.113	598.232	-3.775
20.121	598.396	-3.777
20.129	598.572	-3.780
20.138	598.733	-3.781
20.146	598.902	-3.783
20.154	599.068	-3.785
20.163	599.238	-3.788
20.171	599.405	-3.791
20.179	599.575	-3.793
20.188	599.738	-3.796
20.196	599.907	-3.798
20.204	600.074	-3.800
20.213	600.234	-3.803
20.221	600.407	-3.806
20.229	600.576	-3.810
20.238	600.740	-3.813
20.246	600.912	-3.816
20.254	601.080	-3.818
20.263	601.248	-3.821
20.271	601.414	-3.824
20.279	601.578	-3.828
20.288	601.749	-3.831
20.296	601.916	-3.835
20.304	602.084	-3.839
20.313	602.250	-3.842
20.321	602.418	-3.845
20.329	602.583	-3.849
20.338	602.752	-3.853
20.346	602.915	-3.857
20.354	603.086	-3.861
20.363	603.253	-3.865
20.371	603.420	-3.869
20.379	603.592	-3.873
20.388	603.756	-3.877
20.396	603.922	-3.882
20.404	604.085	-3.885
20.413	604.253	-3.889
20.421	604.424	-3.893
20.429	604.592	-3.896
20.438	604.758	-3.900
20.446	604.922	-3.904
20.454	605.091	-3.907
20.463	605.260	-3.911
20.471	605.427	-3.915
20.479	605.594	-3.919
20.488	605.760	-3.923
20.496	605.927	-3.928
20.504	606.093	-3.932
20.513	606.262	-3.937
20.521	606.428	-3.941
20.529	606.595	-3.945
20.538	606.763	-3.950
20.546	606.929	-3.954
20.554	607.096	-3.959
20.563	607.261	-3.964
20.571	607.430	-3.969
20.579	607.593	-3.974
20.588	607.764	-3.978
20.596	607.928	-3.983
20.604	608.097	-3.989
20.613	608.263	-3.993
20.621	608.434	-3.999
20.629	608.599	-4.004
20.638	608.764	-4.009
20.646	608.931	-4.014
20.654	609.097	-4.019
20.663	609.260	-4.024
20.671	609.427	-4.030
20.679	609.591	-4.035
20.688	609.759	-4.040
20.696	609.925	-4.046
20.704	610.093	-4.051
20.713	610.267	-4.057
20.721	610.435	-4.063
20.729	610.599	-4.068
20.738	610.769	-4.074
20.746	610.932	-4.080
20.754	611.101	-4.086
20.763	611.272	-4.092
20.771	611.435	-4.098
20.779	611.602	-4.104
20.788	611.771	-4.110
20.796	611.937	-4.116
20.804	612.106	-4.123
20.813	612.272	-4.129
20.821	612.438	-4.136
20.829	612.603	-4.142
20.838	612.769	-4.149
20.846	612.935	-4.156
20.854	613.107	-4.164
20.863	613.270	-4.171
20.871	613.436	-4.178
20.879	613.602	-4.186
20.888	613.769	-4.194
20.896	613.937	-4.201
20.904	614.106	-4.210
20.913	614.270	-4.219
20.921	614.436	-4.228
20.929	614.606	-4.237
20.938	614.771	-4.246
20.946	614.936	-4.255
20.954	615.109	-4.265
20.963	615.273	-4.274
20.971	615.439	-4.283
20.979	615.603	-4.293
20.988	615.770	-4.301
20.996	615.933	-4.310
21.004	616.094	-4.319
21.013	616.264	-4.329
21.021	616.439	-4.338
21.029	616.602	-4.347
21.038	616.772	-4.357
21.046	616.940	-4.366
21.054	617.106	-4.376
21.063	617.273	-4.386
21.071	617.441	-4.396
21.079	617.605	-4.406
21.088	617.770	-4.416
21.096	617.937	-4.426
21.104	618.103	-4.436
21.113	618.271	-4.447
21.121	618.432	-4.457
21.129	618.603	-4.467
21.138	618.770	-4.478
21.146	618.937	-4.488
21.154	619.103	-4.499
21.163	619.270	-4.510
21.171	619.437	-4.521
21.179	619.603	-4.533
21.188	619.768	-4.545
21.196	619.935	-4.557
21.204	620.104	-4.569
21.213	620.268	-4.581
21.221	620.438	-4.594
21.229	620.603	-4.607
21.238	620.767	-4.620
21.246	620.934	-4.633
21.254	621.101	-4.647
21.263	621.268	-4.661
21.271	621.432	-4.675
21.279	621.600	-4.689
21.288	621.768	-4.704
21.296	621.934	-4.719
21.304	622.097	-4.733
21.313	622.266	-4.747
21.321	622.434	-4.762
21.329	622.598	-4.777
21.338	622.763	-4.792
21.346	622.928	-4.807
21.354	623.097	-4.823
21.363	623.262	-4.838
21.371	623.427	-4.854
21.379	623.596	-4.870
21.388	623.763	-4.886
21.396	623.932	-4.902
21.404	624.098	-4.919
21.413	624.260	-4.935
21.421	624.427	-4.952
21.429	624.594	-4.968
21.438	624.759	-4.985
21.446	624.923	-5.002
21.454	625.091	-5.018
21.463	625.258	-5.036
21.471	625.425	-5.054
21.479	625.589	-5.072
21.488	625.756	-5.091
21.496	625.929	-5.109
21.504	626.091	-5.128
21.513	626.254	-5.147
21.521	626.425	-5.167
21.529	626.585	-5.187
21.538	626.753	-5.207
21.546	626.921	-5.227
21.554	627.086	-5.246
21.563	627.253	-5.266
21.571	627.420	-5.286
21.579	627.582	-5.307
21.588	627.751	-5.328
21.596	627.920	-5.348
21.604	628.085	-5.369
21.613	628.247	-5.389
21.621	628.413	-5.409
21.629	628.582	-5.431
21.638	628.748	-5.452
21.646	628.917	-5.473
21.654	629.082	-5.495
21.663	629.242	-5.517
21.671	629.411	-5.538
21.679	629.580	-5.560
21.688	629.745	-5.583
21.696	629.913	-5.606
21.704	630.079	-5.629
21.713	630.247	-5.652
21.721	630.408	-5.675
21.729	630.577	-5.699
21.738	630.743	-5.722
21.746	630.908	-5.746
21.754	631.073	-5.770
21.763	631.241	-5.794
21.771	631.406	-5.817
21.779	631.576	-5.841
21.788	631.738	-5.865
21.796	631.907	-5.889
21.804	632.071	-5.913
21.813	632.235	-5.938
21.821	632.403	-5.962
21.829	632.568	-5.987
21.838	632.734	-6.012
21.846	632.902	-6.037
21.854	633.067	-6.062
21.863	633.235	-6.088
21.871	633.400	-6.113
21.879	633.563	-6.139
21.888	633.733	-6.164
21.896	633.900	-6.190
21.904	634.064	-6.215
21.913	634.226	-6.241
21.921	634.393	-6.267
21.929	634.562	-6.293
21.938	634.724	-6.319
21.946	634.892	-6.345
21.954	635.057	-6.371
21.963	635.224	-6.398
21.971	635.387	-6.424
21.979	635.552	-6.451
21.988	635.714	-6.477
21.996	635.888	-6.504
22.004	636.050	-6.530
22.013	636.222	-6.557
22.021	636.384	-6.584
22.029	636.553	-6.611
22.038	636.715	-6.638
22.046	636.879	-6.665
22.054	637.049	-6.693
22.063	637.213	-6.721
22.071	637.376	-6.748
22.079	637.543	-6.776
22.088	637.707	-6.804
22.096	637.876	-6.831
22.104	638.040	-6.858
22.113	638.206	-6.885
22.121	638.375	-6.912
22.129	638.539	-6.938
22.138	638.705	-6.963
22.146	638.871	-6.988
22.154	639.037	-7.013
22.163	639.201	-7.039
22.171	639.369	-7.065
22.179	639.534	-7.090
22.188	639.696	-7.115
22.196	639.863	-7.141
22.204	640.031	-7.167
22.213	640.198	-7.194
22.221	640.362	-7.221
22.229	640.528	-7.248
22.238	640.693	-7.275
22.246	640.861	-7.303
22.254	641.028	-7.330
22.263	641.188	-7.357
22.271	641.356	-7.386
22.279	641.524	-7.413
22.288	641.686	-7.440
22.296	641.855	-7.468
22.304	642.022	-7.495
22.313	642.186	-7.522
22.321	642.354	-7.549
22.329	642.514	-7.576
22.338	642.683	-7.603
22.346	642.847	-7.629
22.354	643.013	-7.655
22.363	643.183	-7.681
22.371	643.346	-7.707
22.379	643.509	-7.733
22.388	643.679	-7.759
22.396	643.844	-7.784
22.404	644.012	-7.810
22.413	644.177	-7.835
22.421	644.341	-7.861
22.429	644.511	-7.886
22.438	644.680	-7.912
22.446	644.843	-7.937
22.454	645.007	-7.962
22.463	645.176	-7.988
22.471	645.338	-8.013
22.479	645.504	-8.038
22.488	645.671	-8.063
22.496	645.840	-8.088
22.504	646.001	-8.111
22.513	646.172	-8.136
22.521	646.332	-8.160
22.529	646.500	-8.183
22.538	646.664	-8.206
22.546	646.831	-8.229
22.554	646.995	-8.251
22.563	647.165	-8.274
22.571	647.332	-8.297
22.579	647.493	-8.320
22.588	647.661	-8.343
22.596	647.831	-8.366
22.604	647.996	-8.388
22.613	648.161	-8.410
22.621	648.331	-8.432
22.629	648.492	-8.454
22.638	648.661	-8.476
22.646	648.824	-8.497
22.654	648.992	-8.518
22.663	649.159	-8.539
22.671	649.324	-8.560
22.679	649.492	-8.581
22.688	649.659	-8.601
22.696	649.824	-8.621
22.704	649.990	-8.641
22.713	650.157	-8.660
22.721	650.323	-8.680
22.729	650.489	-8.699
22.738	650.655	-8.719
22.746	650.821	-8.738
22.754	650.984	-8.757
22.763	651.150	-8.775
22.771	651.316	-8.794
22.779	651.485	-8.813
22.788	651.653	-8.831
22.796	651.817	-8.849
22.804	651.985	-8.867
22.813	652.152	-8.884
22.821	652.318	-8.902
22.829	652.482	-8.919
22.838	652.649	-8.935
22.846	652.817	-8.952
22.854	652.987	-8.968
22.863	653.151	-8.985
22.871	653.315	-9.001
22.879	653.483	-9.017
22.888	653.651	-9.034
22.896	653.818	-9.050
22.904	653.983	-9.065
22.913	654.149	-9.080
22.921	654.312	-9.095
22.929	654.485	-9.110
22.938	654.647	-9.124
22.946	654.815	-9.138
22.954	654.985	-9.152
22.963	655.152	-9.165
22.971	655.317	-9.179
22.979	655.481	-9.192
22.988	655.651	-9.205
22.996	655.814	-9.218
23.004	655.980	-9.230
23.013	656.145	-9.243
23.021	656.313	-9.256
23.029	656.481	-9.268
23.038	656.643	-9.280
23.046	656.802	-9.292
23.054	656.971	-9.303
23.063	657.139	-9.314
23.071	657.309	-9.325
23.079	657.474	-9.335
23.088	657.653	-9.346
23.096	657.819	-9.356
23.104	657.987	-9.367
23.113	658.149	-9.378
23.121	658.318	-9.387
23.129	658.482	-9.396
23.138	658.648	-9.405
23.146	658.821	-9.415
23.154	658.985	-9.424
23.163	659.150	-9.433
23.171	659.318	-9.443
23.179	659.484	-9.452
23.188	659.654	-9.460
23.196	659.820	-9.467
23.204	659.984	-9.475
23.213	660.154	-9.483
23.221	660.321	-9.490
23.229	660.493	-9.497
23.238	660.657	-9.504
23.246	660.823	-9.509
23.254	660.992	-9.515
23.263	661.157	-9.520
23.271	661.325	-9.526
23.279	661.487	-9.530
23.288	661.656	-9.534
23.296	661.824	-9.538
23.304	661.988	-9.543
23.313	662.160	-9.548
23.321	662.325	-9.552
23.329	662.494	-9.556
23.338	662.664	-9.558
23.346	662.830	-9.560
23.354	662.996	-9.562
23.363	663.163	-9.564
23.371	663.335	-9.565
23.379	663.497	-9.566
23.388	663.667	-9.565
23.396	663.832	-9.564
23.404	663.999	-9.562
23.413	664.167	-9.560
23.421	664.338	-9.558
23.429	664.503	-9.555
23.438	664.672	-9.550
23.446	664.839	-9.545
23.454	665.010	-9.540
23.463	665.176	-9.534
23.471	665.343	-9.527
23.479	665.513	-9.520
23.488	665.679	-9.511
23.496	665.847	-9.501
23.504	666.018	-9.491
23.513	666.184	-9.480
23.521	666.349	-9.468
23.529	666.516	-9.456
23.538	666.688	-9.442
23.546	666.858	-9.426
23.554	667.027	-9.410
23.563	667.196	-9.392
23.571	667.362	-9.374
23.579	667.529	-9.353
23.588	667.702	-9.332
23.596	667.870	-9.309
23.604	668.043	-9.285
23.613	668.207	-9.259
23.621	668.377	-9.232
23.629	668.545	-9.203
23.638	668.714	-9.172
23.646	668.882	-9.139
23.654	669.054	-9.105
23.663	669.224	-9.068
23.671	669.393	-9.029
23.679	669.567	-8.989
23.688	669.735	-8.946
23.696	669.908	-8.901
23.704	670.079	-8.853
23.713	670.253	-8.803
23.721	670.419	-8.750
23.729	670.589	-8.695
23.738	670.761	-8.637
23.746	670.931	-8.576
23.754	671.105	-8.511
23.763	671.276	-8.443
23.771	671.448	-8.372
23.779	671.623	-8.298
23.788	671.794	-8.221
23.796	671.965	-8.140
23.804	672.136	-8.055
23.813	672.313	-7.966
23.821	672.483	-7.873
23.829	672.660	-7.776
23.838	672.833	-7.676
23.846	673.008	-7.571
23.854	673.184	-7.460
23.863	673.356	-7.345
23.871	673.531	-7.225
23.879	673.704	-7.100
23.888	673.883	-6.969
23.896	674.058	-6.834
23.904	674.230	-6.693
23.913	674.409	-6.546
23.921	674.584	-6.392
23.929	674.764	-6.232
23.938	674.942	-6.067
23.946	675.117	-5.895
23.954	675.295	-5.716
23.963	675.479	-5.531
23.971	675.659	-5.338
23.979	675.833	-5.138
23.988	676.012	-4.931
23.996	676.193	-4.716
24.004	676.374	-4.493
24.013	676.554	-4.263
24.021	676.737	-4.025
24.029	676.921	-3.779
24.038	677.101	-3.524
24.046	677.282	-3.260
24.054	677.465	-2.989
24.063	677.653	-2.708
24.071	677.840	-2.418
24.079	678.021	-2.119
24.088	678.204	-1.813
24.096	678.388	-1.497
24.104	678.578	-1.172
24.113	678.763	-0.838
24.121	678.949	-0.495
24.129	679.137	-0.143
24.138	679.326	0.217
24.146	679.521	0.585
24.154	679.705	0.964
24.163	679.897	1.351
24.171	680.082	1.747
24.179	680.276	2.150
24.188	680.463	2.561
24.196	680.658	2.979
24.204	680.846	3.404
24.213	681.035	3.836
24.221	681.226	4.274
24.229	681.422	4.719
24.238	681.609	5.168
24.246	681.803	5.623
24.254	681.996	6.083
24.263	682.185	6.549
24.271	682.381	7.020
24.279	682.569	7.495
24.288	682.766	7.976
24.296	682.954	8.460
24.304	683.151	8.950
24.313	683.343	9.443
24.321	683.540	9.939
24.329	683.731	10.440
24.338	683.926	10.944
24.346	684.121	11.450
24.354	684.313	11.960
24.363	684.508	12.473
24.371	684.702	12.988
24.379	684.894	13.505
24.388	685.088	14.024
24.396	685.287	14.544
24.404	685.481	15.067
24.413	685.672	15.590
24.421	685.871	16.114
24.429	686.065	16.639
24.438	686.256	17.164
24.446	686.450	17.689
24.454	686.645	18.214
24.463	686.840	18.738
24.471	687.030	19.262
24.479	687.224	19.784
24.488	687.421	20.304
24.496	687.614	20.820
24.504	687.804	21.334
24.513	688.000	21.843
24.521	688.188	22.347
24.529	688.380	22.845
24.538	688.568	23.337
24.546	688.758	23.821
24.554	688.947	24.297
24.563	689.134	24.764
24.571	689.324	25.222
24.579	689.514	25.670
24.588	689.696	26.106
24.596	689.886	26.531
24.604	690.070	26.944
24.613	690.253	27.344
24.621	690.435	27.730
24.629	690.621	28.103
24.638	690.807	28.461
24.646	690.985	28.805
24.654	691.164	29.133
24.663	691.345	29.446
24.671	691.526	29.746
24.679	691.706	30.031
24.688	691.884	30.302
24.696	692.063	30.559
24.704	692.239	30.803
24.713	692.415	31.033
24.721	692.590	31.249
24.729	692.766	31.452
24.738	692.939	31.644
24.746	693.119	31.822
24.754	693.287	31.988
24.763	693.461	32.141
24.771	693.633	32.283
24.779	693.805	32.413
24.788	693.976	32.531
24.796	694.147	32.638
24.804	694.317	32.733
24.813	694.486	32.817
24.821	694.655	32.890
24.829	694.823	32.952
24.838	694.989	33.002
24.846	695.163	33.043
24.854	695.331	33.072
24.863	695.493	33.090
24.871	695.658	33.098
24.879	695.824	33.096
24.888	695.986	33.086
24.896	696.158	33.065
24.904	696.320	33.034
24.913	696.482	32.994
24.921	696.644	32.946
24.929	696.809	32.889
24.938	696.969	32.823
24.946	697.130	32.748
24.954	697.294	32.665
24.963	697.459	32.573
24.971	697.612	32.472
24.979	697.774	32.364
24.988	697.935	32.249
24.996	698.093	32.126
25.004	698.256	31.995
25.013	698.416	31.857
25.021	698.572	31.713
25.029	698.729	31.561
25.038	698.888	31.402
25.046	699.043	31.237
25.054	699.202	31.065
25.063	699.360	30.887
25.071	699.519	30.702
25.079	699.673	30.511
25.088	699.828	30.312
25.096	699.982	30.108
25.104	700.140	29.897
25.113	700.290	29.680
25.121	700.443	29.456
25.129	700.599	29.226
25.138	700.755	28.990
25.146	700.908	28.748
25.154	701.061	28.500
25.163	701.211	28.246
25.171	701.368	27.986
25.179	701.520	27.722
25.188	701.670	27.454
25.196	701.823	27.180
25.204	701.973	26.901
25.213	702.124	26.619
25.221	702.277	26.333
25.229	702.427	26.044
25.238	702.578	25.750
25.246	702.732	25.455
25.254	702.884	25.157
25.263	703.036	24.855
25.271	703.183	24.550
25.279	703.336	24.243
25.288	703.488	23.934
25.296	703.636	23.623
25.304	703.783	23.309
25.313	703.937	22.993
25.321	704.088	22.676
25.329	704.239	22.357
25.338	704.389	22.037
25.346	704.540	21.715
25.354	704.690	21.393
25.363	704.839	21.070
25.371	704.988	20.745
25.379	705.139	20.421
25.388	705.289	20.096
25.396	705.442	19.772
25.404	705.589	19.448
25.413	705.741	19.124
25.421	705.892	18.800
25.429	706.041	18.476
25.438	706.190	18.153
25.446	706.335	17.832
25.454	706.491	17.512
25.463	706.640	17.192
25.471	706.793	16.873
25.479	706.946	16.556
25.488	707.096	16.240
25.496	707.243	15.925
25.504	707.397	15.612
25.513	707.547	15.301
25.521	707.697	14.992
25.529	707.848	14.683
25.538	708.001	14.377
25.546	708.151	14.073
25.554	708.302	13.770
25.563	708.459	13.470
25.571	708.609	13.172
25.579	708.758	12.876
25.588	708.910	12.582
25.596	709.063	12.290
25.604	709.214	12.002
25.613	709.366	11.715
25.621	709.520	11.431
25.629	709.673	11.150
25.638	709.827	10.871
25.646	709.979	10.596
25.654	710.131	10.322
25.663	710.286	10.052
25.671	710.438	9.785
25.679	710.595	9.520
25.688	710.749	9.257
25.696	710.901	8.997
25.704	711.055	8.740
25.713	711.204	8.485
25.721	711.362	8.233
25.729	711.517	7.983
25.738	711.670	7.736
25.746	711.826	7.491
25.754	711.981	7.248
25.763	712.136	7.007
25.771	712.294	6.769
25.779	712.447	6.532
25.788	712.597	6.298
25.796	712.755	6.066
25.804	712.912	5.836
25.813	713.070	5.610
25.821	713.221	5.385
25.829	713.381	5.164
25.838	713.534	4.944
25.846	713.690	4.727
25.854	713.848	4.512
25.863	714.003	4.300
25.871	714.160	4.091
25.879	714.317	3.883
25.888	714.475	3.678
25.896	714.629	3.475
25.904	714.784	3.274
25.913	714.943	3.076
25.921	715.099	2.880
25.929	715.256	2.686
25.938	715.412	2.495
25.946	715.572	2.306
25.954	715.728	2.119
25.963	715.889	1.935
25.971	716.048	1.752
25.979	716.202	1.572
25.988	716.362	1.394
25.996	716.522	1.218
26.004	716.681	1.044
26.013	716.836	0.872
26.021	716.993	0.701
26.029	717.155	0.533
26.038	717.314	0.366
26.046	717.470	0.202
26.054	717.631	0.039
26.063	717.791	-0.122
26.071	717.951	-0.281
26.079	718.109	-0.438
26.088	718.268	-0.593
26.096	718.425	-0.746
26.104	718.586	-0.897
26.113	718.744	-1.046
26.121	718.909	-1.194
26.129	719.064	-1.339
26.138	719.224	-1.483
26.146	719.388	-1.626
26.154	719.547	-1.766
26.163	719.709	-1.905
26.171	719.868	-2.042
26.179	720.031	-2.177
26.188	720.186	-2.310
26.196	720.350	-2.441
26.204	720.511	-2.571
26.213	720.675	-2.699
26.221	720.832	-2.826
26.229	720.992	-2.950
26.238	721.153	-3.073
26.246	721.315	-3.194
26.254	721.478	-3.314
26.263	721.640	-3.432
26.271	721.803	-3.549
26.279	721.962	-3.665
26.288	722.124	-3.779
26.296	722.287	-3.890
26.304	722.450	-4.001
26.313	722.608	-4.110
26.321	722.775	-4.220
26.329	722.937	-4.327
26.338	723.098	-4.433
26.346	723.260	-4.538
26.354	723.423	-4.640
26.363	723.588	-4.741
26.371	723.747	-4.841
26.379	723.913	-4.941
26.388	724.072	-5.038
26.396	724.237	-5.134
26.404	724.400	-5.228
26.413	724.564	-5.322
26.421	724.730	-5.414
26.429	724.891	-5.504
26.438	725.048	-5.593
26.446	725.216	-5.683
26.454	725.380	-5.771
26.463	725.540	-5.857
26.471	725.701	-5.942
26.479	725.868	-6.026
26.488	726.028	-6.109
26.496	726.192	-6.191
26.504	726.358	-6.271
26.513	726.524	-6.350
26.521	726.687	-6.428
26.529	726.851	-6.505
26.538	727.013	-6.581
26.546	727.177	-6.656
26.554	727.345	-6.730
26.563	727.508	-6.803
26.571	727.669	-6.875
26.579	727.838	-6.947
26.588	728.002	-7.017
26.596	728.167	-7.087
26.604	728.330	-7.154
26.613	728.490	-7.221
26.621	728.655	-7.288
26.629	728.825	-7.353
26.638	728.988	-7.417
26.646	729.149	-7.481
26.654	729.313	-7.544
26.663	729.485	-7.606
26.671	729.647	-7.667
26.679	729.816	-7.727
26.688	729.981	-7.787
26.696	730.145	-7.846
26.704	730.307	-7.904
26.713	730.471	-7.961
26.721	730.637	-8.017
26.729	730.802	-8.072
26.738	730.971	-8.126
26.746	731.136	-8.180
26.754	731.301	-8.234
26.763	731.469	-8.286
26.771	731.631	-8.337
26.779	731.795	-8.387
26.788	731.961	-8.437
26.796	732.128	-8.486
26.804	732.292	-8.535
26.813	732.459	-8.582
26.821	732.624	-8.628
26.829	732.789	-8.675
26.838	732.958	-8.720
26.846	733.122	-8.765
26.854	733.289	-8.810
26.863	733.459	-8.855
26.871	733.616	-8.899
26.879	733.785	-8.942
26.888	733.952	-8.985
26.896	734.117	-9.028
26.904	734.281	-9.070
26.913	734.449	-9.111
26.921	734.610	-9.152
26.929	734.779	-9.192
26.938	734.944	-9.232
26.946	735.110	-9.271
26.954	735.275	-9.310
26.963	735.444	-9.347
26.971	735.606	-9.384
26.979	735.774	-9.421
26.988	735.940	-9.458
26.996	736.107	-9.494
27.004	736.275	-9.530
27.013	736.440	-9.566
27.021	736.604	-9.600
27.029	736.776	-9.635
27.038	736.935	-9.669
27.046	737.106	-9.703
27.054	737.273	-9.736
27.063	737.439	-9.769
27.071	737.607	-9.802
27.079	737.773	-9.834
27.088	737.940	-9.867
27.096	738.105	-9.899
27.104	738.272	-9.930
27.113	738.434	-9.961
27.121	738.602	-9.992
27.129	738.763	-10.022
27.138	738.935	-10.053
27.146	739.100	-10.082
27.154	739.265	-10.112
27.163	739.434	-10.141
27.171	739.599	-10.169
27.179	739.771	-10.198
27.188	739.935	-10.227
27.196	740.098	-10.256
27.204	740.265	-10.285
27.213	740.433	-10.314
27.221	740.598	-10.342
27.229	740.765	-10.370
27.238	740.928	-10.398
27.246	741.092	-10.426
27.254	741.259	-10.454
27.263	741.431	-10.482
27.271	741.600	-10.509
27.279	741.767	-10.536
27.288	741.933	-10.562
27.296	742.100	-10.588
27.304	742.265	-10.615
27.313	742.433	-10.642
27.321	742.596	-10.669
27.329	742.764	-10.696
27.338	742.927	-10.722
27.346	743.094	-10.749
27.354	743.263	-10.775
27.363	743.430	-10.802
27.371	743.593	-10.829
27.379	743.762	-10.854
27.388	743.929	-10.879
27.396	744.097	-10.905
27.404	744.257	-10.931
27.413	744.427	-10.957
27.421	744.591	-10.982
27.429	744.761	-11.008
27.438	744.922	-11.034
27.446	745.090	-11.061
27.454	745.257	-11.086
27.463	745.423	-11.112
27.471	745.586	-11.137
27.479	745.757	-11.163
27.488	745.921	-11.188
27.496	746.091	-11.214
27.504	746.253	-11.240
27.513	746.421	-11.265
27.521	746.587	-11.290
27.529	746.751	-11.314
27.538	746.918	-11.339
27.546	747.088	-11.364
27.554	747.254	-11.388
27.563	747.425	-11.413
27.571	747.587	-11.438
27.579	747.751	-11.463
27.588	747.917	-11.488
27.596	748.084	-11.512
27.604	748.250	-11.537
27.613	748.414	-11.562
27.621	748.584	-11.588
27.629	748.747	-11.613
27.638	748.913	-11.639
27.646	749.083	-11.664
27.654	749.250	-11.688
27.663	749.417	-11.712
27.671	749.581	-11.737
27.679	749.745	-11.763
27.688	749.911	-11.788
27.696	750.082	-11.812
27.704	750.243	-11.837
27.713	750.412	-11.862
27.721	750.578	-11.887
27.729	750.743	-11.911
27.738	750.908	-11.936
27.746	751.072	-11.960
27.754	751.241	-11.984
27.763	751.408	-12.008
27.771	751.577	-12.032
27.779	751.739	-12.056
27.788	751.907	-12.081
27.796	752.074	-12.104
27.804	752.240	-12.128
27.813	752.408	-12.152
27.821	752.576	-12.176
27.829	752.739	-12.200
27.838	752.904	-12.224
27.846	753.070	-12.248
27.854	753.239	-12.272
27.863	753.404	-12.295
27.871	753.572	-12.318
27.879	753.737	-12.341
27.888	753.903	-12.365
27.896	754.074	-12.388
27.904	754.237	-12.411
27.913	754.403	-12.433
27.921	754.568	-12.454
27.929	754.737	-12.477
27.938	754.902	-12.500
27.946	755.070	-12.523
27.954	755.237	-12.546
27.963	755.402	-12.568
27.971	755.568	-12.591
27.979	755.736	-12.614
27.988	755.902	-12.637
27.996	756.064	-12.660
28.004	756.232	-12.683
28.013	756.399	-12.705
28.021	756.569	-12.728
28.029	756.738	-12.750
28.038	756.901	-12.771
28.046	757.065	-12.794
28.054	757.234	-12.815
28.063	757.402	-12.837
28.071	757.569	-12.858
28.079	757.732	-12.881
28.088	757.898	-12.903
28.096	758.066	-12.925
28.104	758.229	-12.947
28.113	758.394	-12.969
28.121	758.565	-12.991
28.129	758.731	-13.012
28.138	758.894	-13.034
28.146	759.060	-13.057
28.154	759.227	-13.078
28.163	759.394	-13.100
28.171	759.564	-13.121
28.179	759.732	-13.142
28.188	759.894	-13.164
28.196	760.058	-13.186
28.204	760.228	-13.207
28.213	760.393	-13.228
28.221	760.558	-13.249
28.229	760.729	-13.270
28.238	760.890	-13.291
28.246	761.058	-13.312
28.254	761.224	-13.332
28.263	761.390	-13.352
28.271	761.556	-13.372
28.279	761.724	-13.393
28.288	761.891	-13.413
28.296	762.057	-13.434
28.304	762.225	-13.455
28.313	762.389	-13.475
28.321	762.554	-13.495
28.329	762.725	-13.517
28.338	762.890	-13.538
28.346	763.057	-13.558
28.354	763.222	-13.579
28.363	763.389	-13.599
28.371	763.556	-13.620
28.379	763.721	-13.640
28.388	763.889	-13.661
28.396	764.053	-13.681
28.404	764.221	-13.701
28.413	764.385	-13.721
28.421	764.552	-13.741
28.429	764.716	-13.761
28.438	764.884	-13.780
28.446	765.051	-13.799
28.454	765.215	-13.818
28.463	765.382	-13.838
28.471	765.553	-13.857
28.479	765.720	-13.876
28.488	765.884	-13.896
28.496	766.053	-13.917
28.504	766.215	-13.936
28.513	766.386	-13.956
28.521	766.553	-13.976
28.529	766.718	-13.996
28.538	766.884	-14.017
28.546	767.052	-14.037
28.554	767.217	-14.057
28.563	767.382	-14.077
28.571	767.550	-14.097
28.579	767.712	-14.116
28.588	767.879	-14.136
28.596	768.046	-14.156
28.604	768.211	-14.176
28.613	768.377	-14.197
28.621	768.546	-14.217
28.629	768.712	-14.237
28.638	768.880	-14.257
28.646	769.046	-14.278
28.654	769.215	-14.299
28.663	769.378	-14.318
28.671	769.540	-14.339
28.679	769.712	-14.360
28.688	769.876	-14.380
28.696	770.042	-14.400
28.704	770.208	-14.421
28.713	770.379	-14.442
28.721	770.541	-14.463
28.729	770.708	-14.484
28.738	770.874	-14.505
28.746	771.039	-14.526
28.754	771.207	-14.547
28.763	771.373	-14.569
28.771	771.541	-14.591
28.779	771.704	-14.613
28.788	771.870	-14.635
28.796	772.033	-14.657
28.804	772.204	-14.679
28.813	772.372	-14.701
28.821	772.538	-14.722
28.829	772.704	-14.745
28.838	772.868	-14.768
28.846	773.034	-14.790
28.854	773.200	-14.811
28.863	773.367	-14.834
28.871	773.533	-14.856
28.879	773.701	-14.878
28.888	773.866	-14.901
28.896	774.036	-14.924
28.904	774.196	-14.947
28.913	774.366	-14.970
28.921	774.529	-14.992
28.929	774.691	-15.015
28.938	774.863	-15.038
28.946	775.032	-15.060
28.954	775.194	-15.083
28.963	775.361	-15.106
28.971	775.526	-15.129
28.979	775.693	-15.151
28.988	775.861	-15.174
28.996	776.028	-15.198
29.004	776.193	-15.221
29.013	776.358	-15.245
29.021	776.525	-15.269
29.029	776.693	-15.294
29.038	776.857	-15.318
29.046	777.024	-15.341
29.054	777.190	-15.365
29.063	777.354	-15.389
29.071	777.525	-15.413
29.079	777.691	-15.437
29.088	777.857	-15.460
29.096	778.022	-15.484
29.104	778.188	-15.507
29.113	778.354	-15.531
29.121	778.519	-15.555
29.129	778.688	-15.579
29.138	778.853	-15.603
29.146	779.017	-15.627
29.154	779.189	-15.652
29.163	779.354	-15.676
29.171	779.518	-15.700
29.179	779.685	-15.725
29.188	779.852	-15.750
29.196	780.018	-15.776
29.204	780.186	-15.801
29.213	780.352	-15.826
29.221	780.516	-15.852
29.229	780.683	-15.877
29.238	780.849	-15.903
29.246	781.015	-15.929
29.254	781.179	-15.954
29.263	781.349	-15.980
29.271	781.513	-16.005
29.279	781.680	-16.030
29.288	781.846	-16.056
29.296	782.012	-16.082
29.304	782.179	-16.108
29.313	782.345	-16.134
29.321	782.511	-16.161
29.329	782.676	-16.187
29.338	782.847	-16.214
29.346	783.011	-16.241
29.354	783.180	-16.269
29.363	783.344	-16.295
29.371	783.510	-16.322
29.379	783.675	-16.349
29.388	783.841	-16.376
29.396	784.012	-16.403
29.404	784.174	-16.430
29.413	784.339	-16.458
29.421	784.504	-16.484
29.429	784.674	-16.511
29.438	784.838	-16.538
29.446	785.003	-16.565
29.454	785.170	-16.593
29.463	785.337	-16.620
29.471	785.504	-16.647
29.479	785.668	-16.675
29.488	785.837	-16.703
29.496	786.005	-16.730
29.504	786.169	-16.759
29.513	786.336	-16.787
29.521	786.503	-16.816
29.529	786.668	-16.844
29.538	786.834	-16.872
29.546	786.998	-16.901
29.554	787.164	-16.929
29.563	787.333	-16.958
29.571	787.495	-16.985
29.579	787.666	-17.014
29.588	787.829	-17.043
29.596	787.996	-17.071
29.604	788.164	-17.099
29.613	788.327	-17.128
29.621	788.496	-17.157
29.629	788.661	-17.185
29.638	788.825	-17.213
29.646	788.994	-17.242
29.654	789.160	-17.271
29.663	789.321	-17.299
29.671	789.489	-17.328
29.679	789.660	-17.357
29.688	789.822	-17.385
29.696	789.991	-17.414
29.704	790.155	-17.442
29.713	790.319	-17.471
29.721	790.485	-17.500
29.729	790.648	-17.529
29.738	790.819	-17.557
29.746	790.988	-17.586
29.754	791.153	-17.614
29.763	791.317	-17.642
29.771	791.478	-17.670
29.779	791.649	-17.699
29.788	791.816	-17.726
29.796	791.982	-17.754
29.804	792.146	-17.781
29.813	792.315	-17.808
29.821	792.481	-17.836
29.829	792.647	-17.865
29.838	792.815	-17.893
29.846	792.976	-17.920
29.854	793.143	-17.948
29.863	793.315	-17.976
29.871	793.477	-18.003
29.879	793.639	-18.031
29.888	793.807	-18.060
29.896	793.973	-18.088
29.904	794.138	-18.115
29.913	794.306	-18.143
29.921	794.470	-18.169
29.929	794.635	-18.197
29.938	794.804	-18.224
29.946	794.968	-18.251
29.954	795.133	-18.279
29.963	795.300	-18.306
29.971	795.467	-18.333
29.979	795.635	-18.359
29.988	795.803	-18.385
29.996	795.966	-18.412
30.004	796.132	-18.438
30.013	796.296	-18.464
30.021	796.462	-18.490
30.029	796.629	-18.516
30.038	796.795	-18.541
30.046	796.959	-18.566
30.054	797.128	-18.592
30.063	797.295	-18.617
30.071	797.458	-18.642
30.079	797.625	-18.667
30.088	797.793	-18.691
30.096	797.956	-18.715
30.104	798.127	-18.739
30.113	798.290	-18.762
30.121	798.451	-18.786
30.129	798.621	-18.810
30.138	798.790	-18.832
30.146	798.957	-18.856
30.154	799.123	-18.880
30.163	799.289	-18.903
30.171	799.454	-18.927
30.179	799.619	-18.950
30.188	799.789	-18.973
30.196	799.955	-18.996
30.204	800.118	-19.018
30.213	800.287	-19.041
30.221	800.451	-19.064
30.229	800.618	-19.085
30.238	800.782	-19.107
30.246	800.951	-19.128
30.254	801.117	-19.148
30.263	801.283	-19.168
30.271	801.452	-19.188
30.279	801.617	-19.208
30.288	801.782	-19.228
30.296	801.951	-19.247
30.304	802.116	-19.265
30.313	802.283	-19.284
30.321	802.448	-19.302
30.329	802.617	-19.320
30.338	802.782	-19.338
30.346	802.950	-19.356
30.354	803.114	-19.374
30.363	803.282	-19.392
30.371	803.448	-19.409
30.379	803.616	-19.427
30.388	803.783	-19.444
30.396	803.953	-19.461
30.404	804.119	-19.478
30.413	804.285	-19.496
30.421	804.448	-19.513
30.429	804.616	-19.530
30.438	804.785	-19.547
30.446	804.947	-19.562
30.454	805.112	-19.579
30.463	805.283	-19.595
30.471	805.440	-19.610
30.479	805.618	-19.626
30.488	805.786	-19.641
30.496	805.949	-19.656
30.504	806.116	-19.670
30.513	806.284	-19.685
30.521	806.451	-19.700
30.529	806.617	-19.715
30.538	806.784	-19.730
30.546	806.956	-19.745
30.554	807.119	-19.761
30.563	807.288	-19.775
30.571	807.449	-19.790
30.579	807.620	-19.805
30.588	807.785	-19.819
30.596	807.954	-19.833
30.604	808.120	-19.848
30.613	808.289	-19.861
30.621	808.455	-19.875
30.629	808.622	-19.889
30.638	808.785	-19.902
30.646	808.952	-19.916
30.654	809.120	-19.929
30.663	809.286	-19.942
30.671	809.453	-19.955
30.679	809.624	-19.969
30.688	809.791	-19.982
30.696	809.958	-19.996
30.704	810.126	-20.008
30.713	810.292	-20.021
30.721	810.456	-20.035
30.729	810.623	-20.049
30.738	810.792	-20.063
30.746	810.956	-20.077
30.754	811.121	-20.091
30.763	811.289	-20.105
30.771	811.457	-20.118
30.779	811.620	-20.132
30.788	811.788	-20.145
30.796	811.955	-20.159
30.804	812.121	-20.172
30.813	812.291	-20.185
30.821	812.455	-20.198
30.829	812.626	-20.212
30.838	812.788	-20.225
30.846	812.956	-20.239
30.854	813.128	-20.254
30.863	813.299	-20.269
30.871	813.455	-20.283
30.879	813.628	-20.299
30.888	813.791	-20.313
30.896	813.959	-20.327
30.904	814.126	-20.342
30.913	814.291	-20.357
30.921	814.462	-20.371
30.929	814.625	-20.387
30.938	814.793	-20.402
30.946	814.960	-20.418
30.954	815.127	-20.433
30.963	815.292	-20.449
30.971	815.459	-20.466
30.979	815.626	-20.482
30.988	815.793	-20.499
30.996	815.958	-20.516
31.004	816.123	-20.533
31.013	816.291	-20.550
31.021	816.458	-20.567
31.029	816.625	-20.584
31.038	816.789	-20.602
31.046	816.956	-20.620
31.054	817.123	-20.638
31.063	817.290	-20.656
31.071	817.455	-20.674
31.079	817.621	-20.694
31.088	817.791	-20.714
31.096	817.956	-20.735
31.104	818.124	-20.756
31.113	818.290	-20.778
31.121	818.461	-20.799
31.129	818.623	-20.821
31.138	818.787	-20.843
31.146	818.955	-20.866
31.154	819.123	-20.888
31.163	819.288	-20.911
31.171	819.455	-20.934
31.179	819.623	-20.956
31.188	819.787	-20.979
31.196	819.952	-21.001
31.204	820.118	-21.024
31.213	820.288	-21.046
31.221	820.452	-21.069
31.229	820.623	-21.093
31.238	820.785	-21.117
31.246	820.950	-21.142
31.254	821.116	-21.166
31.263	821.289	-21.192
31.271	821.453	-21.217
31.279	821.619	-21.241
31.288	821.783	-21.267
31.296	821.950	-21.294
31.304	822.113	-21.320
31.313	822.283	-21.346
31.321	822.451	-21.372
31.329	822.616	-21.398
31.338	822.781	-21.424
31.346	822.949	-21.451
31.354	823.109	-21.479
31.363	823.283	-21.506
31.371	823.448	-21.533
31.379	823.617	-21.561
31.388	823.775	-21.590
31.396	823.944	-21.620
31.404	824.109	-21.649
31.413	824.276	-21.679
31.421	824.442	-21.708
31.429	824.610	-21.738
31.438	824.775	-21.769
31.446	824.941	-21.801
31.454	825.108	-21.833
31.463	825.273	-21.865
31.471	825.440	-21.896
31.479	825.602	-21.927
31.488	825.769	-21.958
31.496	825.935	-21.990
31.504	826.105	-22.023
31.513	826.267	-22.055
31.521	826.436	-22.089
31.529	826.600	-22.123
31.538	826.768	-22.159
31.546	826.928	-22.194
31.554	827.098	-22.231
31.563	827.269	-22.269
31.571	827.428	-22.307
31.579	827.595	-22.346
31.588	827.766	-22.385
31.596	827.926	-22.424
31.604	828.093	-22.464
31.613	828.259	-22.502
31.621	828.426	-22.541
31.629	828.592	-22.580
31.638	828.759	-22.621
31.646	828.922	-22.663
31.654	829.088	-22.704
31.663	829.254	-22.745
31.671	829.415	-22.788
31.679	829.582	-22.831
31.688	829.750	-22.873
31.696	829.917	-22.916
31.704	830.077	-22.959
31.713	830.247	-23.002
31.721	830.409	-23.044
31.729	830.574	-23.087
31.738	830.738	-23.129
31.746	830.908	-23.173
31.754	831.068	-23.216
31.763	831.236	-23.261
31.771	831.402	-23.307
31.779	831.568	-23.354
31.788	831.730	-23.401
31.796	831.895	-23.449
31.804	832.059	-23.497
31.813	832.223	-23.545
31.821	832.392	-23.595
31.829	832.557	-23.643
31.838	832.721	-23.692
31.846	832.885	-23.741
31.854	833.056	-23.790
31.863	833.219	-23.838
31.871	833.383	-23.886
31.879	833.547	-23.934
31.888	833.714	-23.983
31.896	833.878	-24.030
31.904	834.046	-24.079
31.913	834.207	-24.128
31.921	834.374	-24.177
31.929	834.540	-24.225
31.938	834.709	-24.275
31.946	834.875	-24.324
31.954	835.042	-24.374
31.963	835.206	-24.424
31.971	835.373	-24.474
31.979	835.536	-24.525
31.988	835.700	-24.575
31.996	835.868	-24.626
32.004	836.032	-24.677
32.013	836.198	-24.729
32.021	836.361	-24.779
32.029	836.528	-24.830
32.038	836.697	-24.881
32.046	836.862	-24.931
32.054	837.013	-24.981
32.063	837.188	-25.032
32.071	837.357	-25.082
32.079	837.523	-25.131
32.088	837.686	-25.181
32.096	837.856	-25.231
32.104	838.018	-25.281
32.113	838.179	-25.332
32.121	838.343	-25.383
32.129	838.509	-25.434
32.138	838.676	-25.483
32.146	838.840	-25.532
32.154	839.004	-25.582
32.163	839.168	-25.632
32.171	839.336	-25.682
32.179	839.499	-25.730
32.188	839.662	-25.779
32.196	839.830	-25.828
32.204	839.995	-25.876
32.213	840.162	-25.926
32.221	840.328	-25.978
32.229	840.494	-26.030
32.238	840.656	-26.082
32.246	840.821	-26.133
32.254	840.988	-26.185
32.263	841.154	-26.238
32.271	841.317	-26.289
32.279	841.486	-26.341
32.288	841.646	-26.392
32.296	841.813	-26.444
32.304	841.982	-26.494
32.313	842.146	-26.544
32.321	842.313	-26.594
32.329	842.476	-26.644
32.338	842.642	-26.694
32.346	842.808	-26.743
32.354	842.975	-26.792
32.363	843.140	-26.840
32.371	843.304	-26.887
32.379	843.469	-26.933
32.388	843.636	-26.979
32.396	843.797	-27.024
32.404	843.966	-27.069
32.413	844.131	-27.112
32.421	844.296	-27.154
32.429	844.465	-27.197
32.438	844.628	-27.238
32.446	844.792	-27.279
32.454	844.959	-27.319
32.463	845.125	-27.358
32.471	845.289	-27.396
32.479	845.459	-27.434
32.488	845.623	-27.472
32.496	845.786	-27.509
32.504	845.954	-27.546
32.513	846.118	-27.584
32.521	846.289	-27.621
32.529	846.451	-27.657
32.538	846.616	-27.693
32.546	846.782	-27.728
32.554	846.949	-27.764
32.563	847.116	-27.798
32.571	847.280	-27.831
32.579	847.451	-27.863
32.588	847.616	-27.896
32.596	847.783	-27.928
32.604	847.950	-27.959
32.613	848.114	-27.990
32.621	848.279	-28.021
32.629	848.443	-28.051
32.638	848.614	-28.082
32.646	848.781	-28.112
32.654	848.946	-28.143
32.663	849.111	-28.173
32.671	849.279	-28.203
32.679	849.443	-28.231
32.688	849.608	-28.260
32.696	849.779	-28.288
32.704	849.946	-28.316
32.713	850.114	-28.345
32.721	850.275	-28.376
32.729	850.444	-28.408
32.738	850.603	-28.440
32.746	850.773	-28.472
32.754	850.938	-28.504
32.763	851.107	-28.537
32.771	851.277	-28.570
32.779	851.440	-28.605
32.788	851.608	-28.640
32.796	851.769	-28.674
32.804	851.935	-28.707
32.813	852.104	-28.738
32.821	852.265	-28.768
32.829	852.436	-28.799
32.838	852.602	-28.830
32.846	852.768	-28.860
32.854	852.930	-28.891
32.863	853.105	-28.921
32.871	853.271	-28.949
32.879	853.431	-28.979
32.888	853.600	-29.008
32.896	853.766	-29.037
32.904	853.930	-29.065
32.913	854.095	-29.093
32.921	854.267	-29.121
32.929	854.431	-29.148
32.938	854.597	-29.175
32.946	854.765	-29.201
32.954	854.927	-29.227
32.963	855.093	-29.253
32.971	855.262	-29.278
32.979	855.428	-29.303
32.988	855.595	-29.328
32.996	855.762	-29.354
33.004	855.925	-29.380
33.013	856.092	-29.406
33.021	856.257	-29.430
33.029	856.426	-29.456
33.038	856.587	-29.481
33.046	856.759	-29.505
33.054	856.926	-29.530
33.063	857.094	-29.555
33.071	857.258	-29.580
33.079	857.423	-29.604
33.088	857.588	-29.628
33.096	857.757	-29.652
33.104	857.922	-29.676
33.113	858.092	-29.700
33.121	858.256	-29.725
33.129	858.421	-29.749
33.138	858.587	-29.774
33.146	858.756	-29.797
33.154	858.921	-29.820
33.163	859.086	-29.844
33.171	859.252	-29.868
33.179	859.413	-29.892
33.188	859.589	-29.916
33.196	859.752	-29.940
33.204	859.917	-29.964
33.213	860.086	-29.987
33.221	860.249	-30.010
33.229	860.418	-30.034
33.238	860.583	-30.058
33.246	860.751	-30.082
33.254	860.915	-30.106
33.263	861.079	-30.129
33.271	861.245	-30.153
33.279	861.411	-30.178
33.288	861.577	-30.201
33.296	861.746	-30.225
33.304	861.913	-30.250
33.313	862.078	-30.273
33.321	862.240	-30.297
33.329	862.406	-30.321
33.338	862.575	-30.345
33.346	862.745	-30.369
33.354	862.907	-30.392
33.363	863.073	-30.416
33.371	863.240	-30.440
33.379	863.404	-30.464
33.388	863.571	-30.488
33.396	863.741	-30.512
33.404	863.906	-30.536
33.413	864.074	-30.560
33.421	864.237	-30.585
33.429	864.404	-30.610
33.438	864.570	-30.634
33.446	864.737	-30.658
33.454	864.902	-30.681
33.463	865.071	-30.706
33.471	865.236	-30.730
33.479	865.401	-30.754
33.488	865.568	-30.778
33.496	865.731	-30.802
33.504	865.900	-30.827
33.513	866.068	-30.851
33.521	866.233	-30.875
33.529	866.398	-30.900
33.538	866.565	-30.925
33.546	866.732	-30.950
33.554	866.896	-30.975
33.563	867.066	-31.000
33.571	867.228	-31.024
33.579	867.395	-31.049
33.588	867.560	-31.074
33.596	867.727	-31.099
33.604	867.888	-31.123
33.613	868.056	-31.148
33.621	868.221	-31.172
33.629	868.386	-31.197
33.638	868.556	-31.223
33.646	868.722	-31.248
33.654	868.889	-31.274
33.663	869.059	-31.300
33.671	869.222	-31.326
33.679	869.385	-31.353
33.688	869.552	-31.379
33.696	869.719	-31.405
33.704	869.885	-31.431
33.713	870.053	-31.457
33.721	870.218	-31.484
33.729	870.384	-31.511
33.738	870.550	-31.538
33.746	870.718	-31.566
33.754	870.885	-31.593
33.763	871.047	-31.619
33.771	871.215	-31.647
33.779	871.380	-31.674
33.788	871.548	-31.703
33.796	871.713	-31.731
33.804	871.880	-31.759
33.813	872.046	-31.787
33.821	872.212	-31.816
33.829	872.376	-31.844
33.838	872.545	-31.873
33.846	872.712	-31.903
33.854	872.877	-31.933
33.863	873.044	-31.963
33.871	873.211	-31.993
33.879	873.377	-32.024
33.888	873.542	-32.054
33.896	873.710	-32.084
33.904	873.873	-32.114
33.913	874.040	-32.144
33.921	874.209	-32.174
33.929	874.372	-32.204
33.938	874.540	-32.234
33.946	874.704	-32.265
33.954	874.873	-32.296
33.963	875.038	-32.326
33.971	875.202	-32.357
33.979	875.371	-32.388
33.988	875.540	-32.420
33.996	875.701	-32.451
34.004	875.870	-32.484
34.013	876.038	-32.516
34.021	876.203	-32.547
34.029	876.367	-32.578
34.038	876.534	-32.611
34.046	876.702	-32.643
34.054	876.868	-32.675
34.063	877.030	-32.707
34.071	877.197	-32.740
34.079	877.364	-32.773
34.088	877.533	-32.806
34.096	877.660	-32.836
34.104	877.834	-32.870
34.113	877.996	-32.899
34.121	878.161	-32.927
34.129	878.328	-32.955
34.138	878.497	-32.984
34.146	878.666	-33.013
34.154	878.832	-33.042
34.163	878.997	-33.071
34.171	879.165	-33.099
34.179	879.332	-33.128
34.188	879.498	-33.157
34.196	879.662	-33.188
34.204	879.830	-33.222
34.213	879.998	-33.254
34.221	880.160	-33.286
34.229	880.327	-33.318
34.238	880.498	-33.349
34.246	880.664	-33.380
34.254	880.828	-33.412
34.263	880.995	-33.444
34.271	881.166	-33.475
34.279	881.329	-33.507
34.288	881.495	-33.539
34.296	881.659	-33.571
34.304	881.828	-33.603
34.313	881.998	-33.636
34.321	882.162	-33.669
34.329	882.326	-33.702
34.338	882.497	-33.736
34.346	882.663	-33.769
34.354	882.829	-33.803
34.363	883.012	-33.839
34.371	883.198	-33.874
34.379	883.360	-33.909
34.388	883.529	-33.948
34.396	883.696	-33.988
34.404	883.860	-34.028
34.413	884.026	-34.067
34.421	884.188	-34.106
34.429	884.359	-34.146
34.438	884.525	-34.185
34.446	884.689	-34.225
34.454	884.857	-34.266
34.463	885.021	-34.306
34.471	885.188	-34.343
34.479	885.354	-34.381
34.488	885.525	-34.419
34.496	885.686	-34.457
34.504	885.854	-34.497
34.513	886.017	-34.536
34.521	886.183	-34.577
34.529	886.347	-34.616
34.538	886.515	-34.656
34.546	886.678	-34.694
34.554	886.849	-34.734
34.563	887.011	-34.774
34.571	887.178	-34.814
34.579	887.343	-34.854
34.588	887.506	-34.893
34.596	887.676	-34.933
34.604	887.842	-34.972
34.613	888.002	-35.013
34.621	888.170	-35.053
34.629	888.338	-35.094
34.638	888.500	-35.133
34.646	888.668	-35.173
34.654	888.829	-35.212
34.663	888.997	-35.253
34.671	889.159	-35.292
34.679	889.331	-35.332
34.688	889.495	-35.372
34.696	889.660	-35.411
34.704	889.826	-35.451
34.713	889.992	-35.492
34.721	890.157	-35.532
34.729	890.322	-35.572
34.738	890.487	-35.612
34.746	890.657	-35.653
34.754	890.821	-35.693
34.763	890.989	-35.734
34.771	891.151	-35.774
34.779	891.316	-35.815
34.788	891.484	-35.855
34.796	891.649	-35.895
34.804	891.815	-35.936
34.813	891.976	-35.976
34.821	892.141	-36.017
34.829	892.305	-36.058
34.838	892.472	-36.098
34.846	892.641	-36.137
34.854	892.803	-36.177
34.863	892.969	-36.217
34.871	893.133	-36.257
34.879	893.298	-36.297
34.888	893.464	-36.336
34.896	893.632	-36.375
34.904	893.796	-36.414
34.913	893.958	-36.453
34.921	894.126	-36.493
34.929	894.294	-36.534
34.938	894.454	-36.574
34.946	894.621	-36.615
34.954	894.787	-36.655
34.963	894.955	-36.695
34.971	895.117	-36.736
34.979	895.287	-36.778
34.988	895.451	-36.818
34.996	895.616	-36.859
35.004	895.780	-36.899
35.013	895.947	-36.940
35.021	896.114	-36.981
35.029	896.280	-37.021
35.038	896.443	-37.062
35.046	896.611	-37.103
35.054	896.774	-37.144
35.063	896.940	-37.184
35.071	897.105	-37.225
35.079	897.275	-37.266
35.088	897.439	-37.307
35.096	897.608	-37.348
35.104	897.772	-37.388
35.113	897.938	-37.429
35.121	898.103	-37.470
35.129	898.269	-37.511
35.138	898.434	-37.552
35.146	898.601	-37.592
35.154	898.764	-37.633
35.163	898.932	-37.675
35.171	899.096	-37.716
35.179	899.260	-37.757
35.188	899.424	-37.798
35.196	899.588	-37.838
35.204	899.752	-37.878
35.213	899.918	-37.919
35.221	900.086	-37.960
35.229	900.248	-37.999
35.238	900.413	-38.039
35.246	900.581	-38.079
35.254	900.747	-38.119
35.263	900.911	-38.159
35.271	901.079	-38.200
35.279	901.240	-38.240
35.288	901.413	-38.282
35.296	901.574	-38.323
35.304	901.743	-38.365
35.313	901.909	-38.407
35.321	902.076	-38.448
35.329	902.238	-38.489
35.338	902.403	-38.531
35.346	902.568	-38.574
35.354	902.739	-38.615
35.363	902.900	-38.656
35.371	903.066	-38.698
35.379	903.229	-38.740
35.388	903.390	-38.781
35.396	903.558	-38.823
35.404	903.728	-38.864
35.413	903.891	-38.905
35.421	904.060	-38.947
35.429	904.223	-38.988
35.438	904.387	-39.030
35.446	904.551	-39.072
35.454	904.721	-39.114
35.463	904.885	-39.155
35.471	905.053	-39.197
35.479	905.216	-39.240
35.488	905.381	-39.283
35.496	905.549	-39.326
35.504	905.708	-39.368
35.513	905.877	-39.412
35.521	906.042	-39.455
35.529	906.209	-39.497
35.538	906.375	-39.540
35.546	906.542	-39.584
35.554	906.703	-39.627
35.563	906.868	-39.671
35.571	907.035	-39.715
35.579	907.202	-39.758
35.588	907.368	-39.801
35.596	907.533	-39.845
35.604	907.700	-39.889
35.613	907.867	-39.933
35.621	908.033	-39.977
35.629	908.195	-40.022
35.638	908.365	-40.066
35.646	908.529	-40.110
35.654	908.682	-40.153
35.663	908.859	-40.199
35.671	909.025	-40.243
35.679	909.190	-40.287
35.688	909.355	-40.332
35.696	909.521	-40.377
35.704	909.687	-40.422
35.713	909.854	-40.468
35.721	910.017	-40.513
35.729	910.184	-40.560
35.738	910.346	-40.606
35.746	910.515	-40.652
35.754	910.680	-40.700
35.763	910.843	-40.748
35.771	911.009	-40.794
35.779	911.173	-40.841
35.788	911.346	-40.888
35.796	911.506	-40.934
35.804	911.672	-40.982
35.813	911.837	-41.029
35.821	912.000	-41.077
35.829	912.173	-41.126
35.838	912.338	-41.175
35.846	912.495	-41.225
35.854	912.663	-41.276
35.863	912.828	-41.326
35.871	912.994	-41.377
35.879	913.161	-41.428
35.888	913.326	-41.478
35.896	913.492	-41.528
35.904	913.657	-41.578
35.913	913.820	-41.628
35.921	913.987	-41.678
35.929	914.155	-41.727
35.938	914.317	-41.776
35.946	914.482	-41.827
35.954	914.650	-41.878
35.963	914.815	-41.928
35.971	914.979	-41.979
35.979	915.149	-42.030
35.988	915.309	-42.080
35.996	915.475	-42.131
36.004	915.644	-42.181
36.013	915.804	-42.232
36.021	915.971	-42.283
36.029	916.139	-42.335
36.038	916.305	-42.386
36.046	916.463	-42.439
36.054	916.631	-42.492
36.063	916.796	-42.544
36.071	916.960	-42.598
36.079	917.130	-42.652
36.088	917.292	-42.706
36.096	917.455	-42.761
36.104	917.622	-42.815
36.113	917.788	-42.870
36.121	917.954	-42.924
36.129	918.117	-42.978
36.138	918.284	-43.032
36.146	918.448	-43.087
36.154	918.614	-43.143
36.163	918.781	-43.197
36.171	918.944	-43.252
36.179	919.106	-43.307
36.188	919.270	-43.362
36.196	919.441	-43.418
36.204	919.604	-43.475
36.213	919.769	-43.531
36.221	919.934	-43.588
36.229	920.097	-43.644
36.238	920.263	-43.702
36.246	920.427	-43.759
36.254	920.594	-43.816
36.263	920.757	-43.873
36.271	920.924	-43.929
36.279	921.089	-43.985
36.288	921.253	-44.041
