t /s	T /°C	HF /mw
4.704	139.218	-6.545
4.707	139.305	-6.545
4.709	139.387	-6.546
4.711	139.470	-6.546
4.713	139.553	-6.547
4.715	139.635	-6.548
4.718	139.719	-6.549
4.720	139.801	-6.549
4.722	139.887	-6.549
4.724	139.969	-6.550
4.726	140.051	-6.550
4.729	140.140	-6.550
4.731	140.225	-6.550
4.733	140.308	-6.550
4.735	140.390	-6.550
4.737	140.466	-6.550
4.740	140.553	-6.550
4.742	140.634	-6.550
4.744	140.723	-6.550
4.746	140.807	-6.551
4.748	140.890	-6.551
4.750	140.970	-6.551
4.753	141.054	-6.551
4.755	141.136	-6.551
4.757	141.218	-6.551
4.759	141.303	-6.552
4.761	141.385	-6.552
4.764	141.470	-6.552
4.766	141.555	-6.552
4.768	141.638	-6.552
4.770	141.725	-6.552
4.772	141.805	-6.552
4.775	141.891	-6.553
4.777	141.970	-6.553
4.779	142.051	-6.553
4.781	142.139	-6.553
4.783	142.219	-6.553
4.786	142.305	-6.553
4.788	142.390	-6.553
4.790	142.473	-6.553
4.792	142.554	-6.553
4.794	142.635	-6.553
4.797	142.721	-6.553
4.799	142.808	-6.553
4.801	142.893	-6.553
4.803	142.977	-6.553
4.805	143.058	-6.552
4.807	143.140	-6.552
4.810	143.222	-6.552
4.812	143.306	-6.552
4.814	143.387	-6.553
4.816	143.475	-6.553
4.818	143.556	-6.553
4.821	143.640	-6.553
4.823	143.723	-6.553
4.825	143.806	-6.553
4.827	143.889	-6.554
4.829	143.974	-6.554
4.832	144.055	-6.554
4.834	144.145	-6.554
4.836	144.222	-6.554
4.838	144.308	-6.554
4.840	144.391	-6.554
4.843	144.476	-6.553
4.845	144.563	-6.553
4.847	144.642	-6.553
4.849	144.725	-6.553
4.851	144.810	-6.553
4.853	144.895	-6.553
4.856	144.978	-6.554
4.858	145.060	-6.554
4.860	145.145	-6.554
4.862	145.227	-6.554
4.864	145.314	-6.554
4.867	145.395	-6.554
4.869	145.482	-6.554
4.871	145.556	-6.554
4.873	145.642	-6.554
4.875	145.723	-6.554
4.878	145.810	-6.555
4.880	145.894	-6.555
4.882	145.980	-6.555
4.884	146.057	-6.555
4.886	146.144	-6.555
4.889	146.226	-6.555
4.891	146.311	-6.555
4.893	146.395	-6.556
4.895	146.479	-6.556
4.897	146.561	-6.556
4.900	146.646	-6.556
4.902	146.729	-6.556
4.904	146.812	-6.556
4.906	146.894	-6.556
4.908	146.979	-6.556
4.910	147.063	-6.556
4.913	147.150	-6.556
4.915	147.232	-6.556
4.917	147.313	-6.556
4.919	147.401	-6.556
4.921	147.486	-6.556
4.924	147.563	-6.556
4.926	147.653	-6.556
4.928	147.735	-6.557
4.930	147.815	-6.557
4.932	147.897	-6.557
4.935	147.981	-6.557
4.937	148.066	-6.558
4.939	148.152	-6.558
4.941	148.233	-6.559
4.943	148.321	-6.559
4.946	148.406	-6.560
4.948	148.485	-6.560
4.950	148.566	-6.560
4.952	148.653	-6.560
4.954	148.736	-6.560
4.956	148.822	-6.560
4.959	148.902	-6.561
4.961	148.986	-6.561
4.963	149.066	-6.561
4.965	149.152	-6.561
4.967	149.235	-6.562
4.970	149.322	-6.562
4.972	149.403	-6.562
4.974	149.490	-6.563
4.976	149.568	-6.563
4.978	149.658	-6.563
4.981	149.737	-6.564
4.983	149.825	-6.564
4.985	149.907	-6.564
4.987	149.991	-6.564
4.989	150.072	-6.565
4.992	150.158	-6.565
4.994	150.243	-6.565
4.996	150.323	-6.565
4.998	150.406	-6.565
5.000	150.494	-6.565
5.003	150.578	-6.565
5.005	150.658	-6.566
5.007	150.740	-6.566
5.009	150.828	-6.566
5.011	150.907	-6.566
5.013	150.992	-6.567
5.016	151.074	-6.567
5.018	151.160	-6.568
5.020	151.243	-6.568
5.022	151.330	-6.569
5.024	151.413	-6.570
5.027	151.498	-6.570
5.029	151.581	-6.571
5.031	151.665	-6.571
5.033	151.747	-6.572
5.035	151.826	-6.572
5.038	151.916	-6.572
5.040	151.994	-6.572
5.042	152.077	-6.573
5.044	152.160	-6.573
5.046	152.242	-6.573
5.049	152.327	-6.573
5.051	152.411	-6.573
5.053	152.496	-6.573
5.055	152.578	-6.574
5.057	152.662	-6.574
5.060	152.746	-6.574
5.062	152.828	-6.574
5.064	152.914	-6.574
5.066	152.998	-6.574
5.068	153.081	-6.575
5.070	153.162	-6.575
5.073	153.243	-6.575
5.075	153.329	-6.575
5.077	153.411	-6.576
5.079	153.494	-6.576
5.081	153.578	-6.576
5.084	153.660	-6.576
5.086	153.745	-6.577
5.088	153.829	-6.577
5.090	153.918	-6.577
5.092	154.000	-6.578
5.095	154.079	-6.578
5.097	154.165	-6.579
5.099	154.245	-6.579
5.101	154.330	-6.580
5.103	154.411	-6.580
5.106	154.497	-6.581
5.108	154.580	-6.582
5.110	154.666	-6.582
5.112	154.747	-6.582
5.114	154.829	-6.583
5.116	154.913	-6.583
5.119	154.994	-6.583
5.121	155.080	-6.583
5.123	155.161	-6.583
5.125	155.248	-6.584
5.127	155.331	-6.584
5.130	155.418	-6.584
5.132	155.499	-6.585
5.134	155.581	-6.585
5.136	155.662	-6.585
5.138	155.750	-6.586
5.141	155.835	-6.586
5.143	155.915	-6.587
5.145	155.998	-6.587
5.147	156.084	-6.587
5.149	156.165	-6.587
5.152	156.250	-6.587
5.154	156.335	-6.587
5.156	156.418	-6.587
5.158	156.502	-6.587
5.160	156.582	-6.588
5.163	156.668	-6.588
5.165	156.753	-6.589
5.167	156.832	-6.589
5.169	156.919	-6.590
5.171	157.006	-6.590
5.173	157.090	-6.591
5.176	157.174	-6.592
5.178	157.252	-6.592
5.180	157.328	-6.593
5.182	157.411	-6.593
5.184	157.500	-6.593
5.187	157.587	-6.593
5.189	157.668	-6.594
5.191	157.753	-6.594
5.193	157.838	-6.594
5.195	157.920	-6.594
5.198	158.004	-6.594
5.200	158.087	-6.594
5.202	158.172	-6.595
5.204	158.252	-6.595
5.206	158.335	-6.595
5.209	158.422	-6.595
5.211	158.505	-6.595
5.213	158.588	-6.595
5.215	158.674	-6.595
5.217	158.756	-6.595
5.219	158.837	-6.595
5.222	158.916	-6.596
5.224	159.003	-6.596
5.226	159.085	-6.596
5.228	159.171	-6.597
5.230	159.251	-6.597
5.233	159.337	-6.597
5.235	159.423	-6.597
5.237	159.507	-6.598
5.239	159.591	-6.598
5.241	159.673	-6.599
5.244	159.757	-6.599
5.246	159.840	-6.599
5.248	159.922	-6.599
5.250	160.005	-6.600
5.252	160.086	-6.600
5.255	160.170	-6.601
5.257	160.259	-6.601
5.259	160.303	-6.601
5.261	160.383	-6.602
5.263	160.467	-6.602
5.266	160.550	-6.602
5.268	160.633	-6.603
5.270	160.741	-6.603
5.272	160.842	-6.602
5.274	160.926	-6.603
5.276	161.009	-6.602
5.279	161.093	-6.602
5.281	161.174	-6.602
5.283	161.262	-6.602
5.285	161.344	-6.601
5.287	161.428	-6.601
5.290	161.508	-6.601
5.292	161.593	-6.601
5.294	161.674	-6.601
5.296	161.760	-6.602
5.298	161.843	-6.602
5.301	161.924	-6.602
5.303	162.006	-6.603
5.305	162.091	-6.603
5.307	162.175	-6.604
5.309	162.256	-6.604
5.312	162.344	-6.605
5.314	162.428	-6.605
5.316	162.511	-6.605
5.318	162.595	-6.606
5.320	162.678	-6.606
5.323	162.760	-6.606
5.325	162.842	-6.606
5.327	162.922	-6.607
5.329	163.009	-6.607
5.331	163.093	-6.607
5.333	163.177	-6.607
5.336	163.258	-6.607
5.338	163.347	-6.607
5.340	163.429	-6.608
5.342	163.512	-6.608
5.344	163.595	-6.608
5.347	163.676	-6.608
5.349	163.757	-6.608
5.351	163.841	-6.608
5.353	163.928	-6.609
5.355	164.008	-6.609
5.358	164.091	-6.609
5.360	164.175	-6.609
5.362	164.260	-6.609
5.364	164.341	-6.609
5.366	164.426	-6.610
5.369	164.508	-6.610
5.371	164.591	-6.611
5.373	164.674	-6.611
5.375	164.759	-6.611
5.377	164.844	-6.611
5.379	164.927	-6.611
5.382	165.010	-6.612
5.384	165.094	-6.612
5.386	165.179	-6.612
5.388	165.257	-6.613
5.390	165.345	-6.613
5.393	165.425	-6.613
5.395	165.510	-6.612
5.397	165.594	-6.613
5.399	165.676	-6.613
5.401	165.760	-6.613
5.404	165.843	-6.614
5.406	165.922	-6.614
5.408	166.006	-6.614
5.410	166.088	-6.614
5.412	166.174	-6.614
5.415	166.259	-6.615
5.417	166.339	-6.615
5.419	166.421	-6.615
5.421	166.508	-6.615
5.423	166.589	-6.615
5.426	166.674	-6.616
5.428	166.753	-6.616
5.430	166.842	-6.616
5.432	166.923	-6.617
5.434	167.009	-6.617
5.436	167.095	-6.617
5.439	167.177	-6.617
5.441	167.257	-6.617
5.443	167.339	-6.618
5.445	167.423	-6.618
5.447	167.505	-6.618
5.450	167.592	-6.618
5.452	167.673	-6.619
5.454	167.757	-6.619
5.456	167.842	-6.619
5.458	167.928	-6.619
5.461	168.009	-6.620
5.463	168.095	-6.620
5.465	168.176	-6.621
5.467	168.260	-6.621
5.469	168.343	-6.621
5.472	168.426	-6.621
5.474	168.515	-6.621
5.476	168.593	-6.621
5.478	168.679	-6.621
5.480	168.759	-6.622
5.482	168.844	-6.622
5.485	168.914	-6.622
5.487	169.008	-6.622
5.489	169.088	-6.623
5.491	169.175	-6.624
5.493	169.262	-6.625
5.496	169.339	-6.626
5.498	169.421	-6.627
5.500	169.505	-6.628
5.502	169.589	-6.629
5.504	169.675	-6.629
5.507	169.757	-6.630
5.509	169.840	-6.630
5.511	169.924	-6.630
5.513	170.011	-6.630
5.515	170.089	-6.630
5.518	170.179	-6.630
5.520	170.256	-6.630
5.522	170.345	-6.630
5.524	170.429	-6.630
5.526	170.510	-6.630
5.529	170.592	-6.630
5.531	170.675	-6.631
5.533	170.760	-6.631
5.535	170.840	-6.631
5.537	170.922	-6.632
5.539	171.013	-6.632
5.542	171.093	-6.632
5.544	171.177	-6.633
5.546	171.262	-6.633
5.548	171.344	-6.634
5.550	171.426	-6.634
5.553	171.508	-6.634
5.555	171.591	-6.635
5.557	171.677	-6.635
5.559	171.757	-6.635
5.561	171.840	-6.636
5.564	171.928	-6.636
5.566	172.008	-6.637
5.568	172.091	-6.637
5.570	172.169	-6.638
5.572	172.260	-6.638
5.575	172.343	-6.638
5.577	172.426	-6.637
5.579	172.510	-6.637
5.581	172.594	-6.636
5.583	172.678	-6.636
5.586	172.763	-6.635
5.588	172.844	-6.634
5.590	172.928	-6.634
5.592	173.010	-6.633
5.594	173.092	-6.632
5.596	173.176	-6.632
5.599	173.257	-6.633
5.601	173.350	-6.633
5.603	173.428	-6.633
5.605	173.513	-6.634
5.607	173.594	-6.634
5.610	173.677	-6.634
5.612	173.763	-6.633
5.614	173.844	-6.634
5.616	173.929	-6.634
5.618	174.006	-6.634
5.621	174.093	-6.634
5.623	174.176	-6.635
5.625	174.258	-6.635
5.627	174.341	-6.635
5.629	174.424	-6.635
5.632	174.507	-6.636
5.634	174.592	-6.636
5.636	174.678	-6.636
5.638	174.760	-6.636
5.640	174.845	-6.636
5.642	174.926	-6.637
5.645	175.005	-6.637
5.647	175.091	-6.637
5.649	175.178	-6.637
5.651	175.256	-6.638
5.653	175.346	-6.638
5.656	175.426	-6.638
5.658	175.511	-6.638
5.660	175.602	-6.639
5.662	175.675	-6.639
5.664	175.762	-6.639
5.667	175.851	-6.639
5.669	175.923	-6.639
5.671	176.014	-6.639
5.673	176.096	-6.639
5.675	176.177	-6.639
5.678	176.262	-6.640
5.680	176.342	-6.640
5.682	176.429	-6.640
5.684	176.513	-6.640
5.686	176.598	-6.640
5.689	176.677	-6.640
5.691	176.760	-6.641
5.693	176.840	-6.641
5.695	176.923	-6.641
5.697	177.011	-6.641
5.699	177.094	-6.641
5.702	177.173	-6.641
5.704	177.259	-6.641
5.706	177.344	-6.641
5.708	177.427	-6.642
5.710	177.510	-6.642
5.713	177.590	-6.642
5.715	177.678	-6.642
5.717	177.764	-6.642
5.719	177.842	-6.642
5.721	177.924	-6.642
5.724	178.009	-6.642
5.726	178.093	-6.642
5.728	178.176	-6.642
5.730	178.260	-6.642
5.732	178.341	-6.642
5.735	178.423	-6.642
5.737	178.510	-6.643
5.739	178.589	-6.643
5.741	178.674	-6.643
5.743	178.756	-6.643
5.745	178.840	-6.643
5.748	178.920	-6.643
5.750	179.005	-6.643
5.752	179.090	-6.643
5.754	179.172	-6.643
5.756	179.258	-6.644
5.759	179.340	-6.644
5.761	179.422	-6.644
5.763	179.506	-6.644
5.765	179.592	-6.644
5.767	179.673	-6.644
5.770	179.759	-6.644
5.772	179.839	-6.644
5.774	179.924	-6.643
5.776	180.008	-6.643
5.778	180.092	-6.643
5.781	180.175	-6.643
5.783	180.260	-6.643
5.785	180.345	-6.643
5.787	180.426	-6.643
5.789	180.514	-6.643
5.792	180.592	-6.643
5.794	180.677	-6.643
5.796	180.757	-6.643
5.798	180.842	-6.643
5.800	180.923	-6.643
5.802	181.007	-6.643
5.805	181.089	-6.642
5.807	181.171	-6.643
5.809	181.256	-6.642
5.811	181.342	-6.642
5.813	181.426	-6.642
5.816	181.514	-6.642
5.818	181.594	-6.642
5.820	181.675	-6.642
5.822	181.761	-6.642
5.824	181.843	-6.642
5.827	181.929	-6.642
5.829	182.012	-6.642
5.831	182.098	-6.642
5.833	182.176	-6.642
5.835	182.261	-6.642
5.838	182.344	-6.643
5.840	182.430	-6.643
5.842	182.514	-6.643
5.844	182.595	-6.643
5.846	182.677	-6.643
5.849	182.766	-6.643
5.851	182.847	-6.643
5.853	182.927	-6.644
5.855	183.012	-6.644
5.857	183.095	-6.644
5.859	183.176	-6.644
5.862	183.265	-6.644
5.864	183.344	-6.644
5.866	183.430	-6.643
5.868	183.515	-6.644
5.870	183.594	-6.644
5.873	183.677	-6.645
5.875	183.763	-6.645
5.877	183.846	-6.645
5.879	183.929	-6.645
5.881	184.013	-6.644
5.884	184.094	-6.644
5.886	184.178	-6.645
5.888	184.266	-6.644
5.890	184.349	-6.644
5.892	184.430	-6.644
5.895	184.514	-6.644
5.897	184.596	-6.644
5.899	184.679	-6.644
5.901	184.764	-6.644
5.903	184.843	-6.644
5.905	184.931	-6.643
5.908	185.013	-6.643
5.910	185.095	-6.643
5.912	185.177	-6.643
5.914	185.266	-6.643
5.916	185.349	-6.643
5.919	185.426	-6.643
5.921	185.513	-6.643
5.923	185.595	-6.643
5.925	185.678	-6.643
5.927	185.759	-6.643
5.930	185.843	-6.644
5.932	185.927	-6.644
5.934	186.009	-6.644
5.936	186.094	-6.644
5.938	186.181	-6.643
5.941	186.266	-6.643
5.943	186.347	-6.643
5.945	186.428	-6.643
5.947	186.517	-6.643
5.949	186.600	-6.643
5.952	186.683	-6.642
5.954	186.766	-6.642
5.956	186.851	-6.642
5.958	186.933	-6.642
5.960	187.016	-6.642
5.962	187.100	-6.642
5.965	187.185	-6.642
5.967	187.267	-6.642
5.969	187.350	-6.643
5.971	187.433	-6.643
5.973	187.519	-6.643
5.976	187.600	-6.643
5.978	187.681	-6.643
5.980	187.765	-6.643
5.982	187.851	-6.643
5.984	187.935	-6.643
5.987	188.022	-6.643
5.989	188.100	-6.643
5.991	188.183	-6.642
5.993	188.265	-6.642
5.995	188.349	-6.642
5.998	188.435	-6.642
6.000	188.515	-6.642
6.002	188.600	-6.642
6.004	188.684	-6.641
6.006	188.765	-6.641
6.008	188.847	-6.641
6.011	188.931	-6.641
6.013	189.018	-6.641
6.015	189.100	-6.641
6.017	189.182	-6.641
6.019	189.262	-6.641
6.022	189.345	-6.641
6.024	189.432	-6.640
6.026	189.515	-6.641
6.028	189.598	-6.641
6.030	189.680	-6.640
6.033	189.765	-6.640
6.035	189.849	-6.639
6.037	189.935	-6.639
6.039	190.017	-6.638
6.041	190.101	-6.638
6.044	190.183	-6.637
6.046	190.266	-6.637
6.048	190.352	-6.636
6.050	190.436	-6.636
6.052	190.519	-6.635
6.055	190.605	-6.635
6.057	190.684	-6.634
6.059	190.770	-6.634
6.061	190.852	-6.634
6.063	190.933	-6.634
6.065	191.018	-6.634
6.068	191.102	-6.634
6.070	191.191	-6.633
6.072	191.269	-6.633
6.074	191.348	-6.633
6.076	191.432	-6.633
6.079	191.517	-6.633
6.081	191.601	-6.632
6.083	191.687	-6.632
6.085	191.771	-6.631
6.087	191.852	-6.631
6.090	191.933	-6.630
6.092	192.019	-6.630
6.094	192.103	-6.630
6.096	192.187	-6.630
6.098	192.269	-6.629
6.101	192.347	-6.629
6.103	192.436	-6.628
6.105	192.518	-6.627
6.107	192.601	-6.627
6.109	192.683	-6.626
6.112	192.766	-6.625
6.114	192.852	-6.624
6.116	192.934	-6.623
6.118	193.019	-6.623
6.120	193.101	-6.622
6.122	193.187	-6.621
6.125	193.271	-6.621
6.127	193.358	-6.621
6.129	193.439	-6.621
6.131	193.526	-6.621
6.133	193.608	-6.620
6.136	193.690	-6.620
6.138	193.776	-6.620
6.140	193.860	-6.619
6.142	193.940	-6.619
6.144	194.022	-6.619
6.147	194.106	-6.618
6.149	194.191	-6.618
6.151	194.273	-6.617
6.153	194.357	-6.617
6.155	194.443	-6.616
6.158	194.523	-6.616
6.160	194.605	-6.616
6.162	194.690	-6.616
6.164	194.776	-6.616
6.166	194.856	-6.615
6.168	194.938	-6.615
6.171	195.023	-6.614
6.173	195.107	-6.614
6.175	195.195	-6.614
6.177	195.279	-6.614
6.179	195.360	-6.613
6.182	195.445	-6.613
6.184	195.527	-6.613
6.186	195.609	-6.612
6.188	195.693	-6.612
6.190	195.773	-6.612
6.193	195.861	-6.611
6.195	195.946	-6.611
6.197	196.028	-6.610
6.199	196.111	-6.610
6.201	196.193	-6.609
6.204	196.274	-6.609
6.206	196.357	-6.608
6.208	196.440	-6.608
6.210	196.522	-6.608
6.212	196.604	-6.608
6.215	196.693	-6.607
6.217	196.775	-6.608
6.219	196.863	-6.608
6.221	196.941	-6.608
6.223	197.026	-6.608
6.225	197.109	-6.608
6.228	197.194	-6.608
6.230	197.275	-6.608
6.232	197.361	-6.608
6.234	197.445	-6.608
6.236	197.529	-6.608
6.239	197.613	-6.608
6.241	197.695	-6.608
6.243	197.773	-6.608
6.245	197.858	-6.608
6.247	197.943	-6.608
6.250	198.027	-6.608
6.252	198.107	-6.608
6.254	198.191	-6.608
6.256	198.277	-6.608
6.258	198.360	-6.608
6.261	198.446	-6.607
6.263	198.526	-6.607
6.265	198.611	-6.607
6.267	198.698	-6.608
6.269	198.778	-6.607
6.271	198.863	-6.607
6.274	198.950	-6.607
6.276	199.028	-6.607
6.278	199.113	-6.607
6.280	199.196	-6.607
6.282	199.279	-6.608
6.285	199.357	-6.608
6.287	199.444	-6.607
6.289	199.527	-6.607
6.291	199.609	-6.607
6.293	199.697	-6.606
6.296	199.774	-6.606
6.298	199.859	-6.606
6.300	199.946	-6.606
6.302	200.028	-6.605
6.304	200.113	-6.605
6.307	200.195	-6.605
6.309	200.280	-6.604
6.311	200.359	-6.604
6.313	200.444	-6.604
6.315	200.528	-6.604
6.318	200.611	-6.603
6.320	200.695	-6.603
6.322	200.776	-6.603
6.324	200.862	-6.603
6.326	200.947	-6.603
6.328	201.029	-6.602
6.331	201.110	-6.602
6.333	201.196	-6.602
6.335	201.279	-6.602
6.337	201.363	-6.603
6.339	201.447	-6.603
6.342	201.529	-6.603
6.344	201.613	-6.603
6.346	201.695	-6.603
6.348	201.776	-6.603
6.350	201.864	-6.603
6.353	201.945	-6.603
6.355	202.027	-6.603
6.357	202.112	-6.602
6.359	202.193	-6.602
6.361	202.277	-6.602
6.364	202.359	-6.602
6.366	202.441	-6.602
6.368	202.527	-6.602
6.370	202.609	-6.603
6.372	202.695	-6.603
6.375	202.777	-6.604
6.377	202.863	-6.604
6.379	202.945	-6.604
6.381	203.026	-6.605
6.383	203.113	-6.605
6.385	203.199	-6.605
6.388	203.280	-6.606
6.390	203.361	-6.606
6.392	203.450	-6.606
6.394	203.531	-6.607
6.396	203.616	-6.607
6.399	203.694	-6.607
6.401	203.779	-6.608
6.403	203.862	-6.608
6.405	203.950	-6.608
6.407	204.030	-6.609
6.410	204.116	-6.609
6.412	204.200	-6.609
6.414	204.280	-6.610
6.416	204.364	-6.610
6.418	204.447	-6.611
6.421	204.530	-6.611
6.423	204.613	-6.612
6.425	204.698	-6.613
6.427	204.781	-6.613
6.429	204.862	-6.614
6.431	204.949	-6.615
6.434	205.030	-6.615
6.436	205.113	-6.616
6.438	205.193	-6.617
6.440	205.281	-6.617
6.442	205.364	-6.617
6.445	205.448	-6.617
6.447	205.529	-6.618
6.449	205.614	-6.618
6.451	205.696	-6.619
6.453	205.780	-6.619
6.456	205.863	-6.620
6.458	205.948	-6.621
6.460	206.026	-6.621
6.462	206.111	-6.621
6.464	206.197	-6.622
6.467	206.282	-6.622
6.469	206.366	-6.623
6.471	206.443	-6.623
6.473	206.532	-6.623
6.475	206.613	-6.624
6.478	206.696	-6.624
6.480	206.781	-6.624
6.482	206.866	-6.624
6.484	206.948	-6.625
6.486	207.031	-6.626
6.488	207.116	-6.626
6.491	207.198	-6.627
6.493	207.280	-6.627
6.495	207.360	-6.628
6.497	207.447	-6.628
6.499	207.531	-6.629
6.502	207.619	-6.629
6.504	207.699	-6.630
6.506	207.782	-6.630
6.508	207.866	-6.631
6.510	207.951	-6.631
6.513	208.034	-6.632
6.515	208.121	-6.632
6.517	208.204	-6.633
6.519	208.287	-6.633
6.521	208.368	-6.634
6.524	208.451	-6.634
6.526	208.534	-6.634
6.528	208.616	-6.635
6.530	208.703	-6.635
6.532	208.784	-6.636
6.534	208.868	-6.637
6.537	208.946	-6.637
6.539	209.033	-6.638
6.541	209.116	-6.637
6.543	209.203	-6.638
6.545	209.282	-6.638
6.548	209.365	-6.639
6.550	209.449	-6.639
6.552	209.532	-6.640
6.554	209.616	-6.640
6.556	209.700	-6.640
6.559	209.785	-6.640
6.561	209.865	-6.640
6.563	209.951	-6.641
6.565	210.027	-6.641
6.567	210.112	-6.641
6.570	210.201	-6.641
6.572	210.283	-6.641
6.574	210.368	-6.641
6.576	210.450	-6.641
6.578	210.532	-6.641
6.581	210.614	-6.642
6.583	210.700	-6.642
6.585	210.785	-6.642
6.587	210.866	-6.642
6.589	210.952	-6.643
6.591	211.029	-6.644
6.594	211.115	-6.644
6.596	211.201	-6.644
6.598	211.283	-6.645
6.600	211.365	-6.645
6.602	211.454	-6.646
6.605	211.537	-6.646
6.607	211.620	-6.646
6.609	211.698	-6.646
6.611	211.784	-6.646
6.613	211.867	-6.646
6.616	211.947	-6.646
6.618	212.032	-6.646
6.620	212.117	-6.646
6.622	212.200	-6.646
6.624	212.285	-6.645
6.627	212.369	-6.645
6.629	212.447	-6.646
6.631	212.538	-6.646
6.633	212.621	-6.646
6.635	212.705	-6.646
6.638	212.788	-6.646
6.640	212.870	-6.646
6.642	212.952	-6.646
6.644	213.034	-6.647
6.646	213.119	-6.647
6.648	213.205	-6.647
6.651	213.285	-6.647
6.653	213.365	-6.647
6.655	213.451	-6.648
6.657	213.533	-6.648
6.659	213.619	-6.648
6.662	213.697	-6.648
6.664	213.783	-6.648
6.666	213.866	-6.648
6.668	213.953	-6.648
6.670	214.030	-6.648
6.673	214.116	-6.648
6.675	214.201	-6.648
6.677	214.284	-6.649
6.679	214.372	-6.649
6.681	214.455	-6.649
6.684	214.530	-6.650
6.686	214.615	-6.650
6.688	214.701	-6.650
6.690	214.788	-6.650
6.692	214.869	-6.651
6.694	214.948	-6.651
6.697	215.037	-6.651
6.699	215.123	-6.651
6.701	215.201	-6.651
6.703	215.288	-6.651
6.705	215.366	-6.651
6.708	215.453	-6.651
6.710	215.537	-6.651
6.712	215.617	-6.650
6.714	215.700	-6.650
6.716	215.789	-6.650
6.719	215.872	-6.649
6.721	215.956	-6.650
6.723	216.039	-6.650
6.725	216.119	-6.650
6.727	216.202	-6.649
6.730	216.287	-6.650
6.732	216.369	-6.649
6.734	216.454	-6.649
6.736	216.538	-6.649
6.738	216.620	-6.649
6.741	216.706	-6.648
6.743	216.788	-6.648
6.745	216.874	-6.647
6.747	216.957	-6.647
6.749	217.040	-6.647
6.751	217.124	-6.647
6.754	217.209	-6.647
6.756	217.291	-6.647
6.758	217.371	-6.647
6.760	217.457	-6.647
6.762	217.543	-6.647
6.765	217.624	-6.648
6.767	217.704	-6.648
6.769	217.790	-6.648
6.771	217.871	-6.648
6.773	217.961	-6.648
6.776	218.043	-6.648
6.778	218.123	-6.648
6.780	218.206	-6.648
6.782	218.289	-6.649
6.784	218.372	-6.648
6.787	218.453	-6.648
6.789	218.542	-6.648
6.791	218.625	-6.648
6.793	218.712	-6.648
6.795	218.794	-6.647
6.797	218.876	-6.647
6.800	218.959	-6.647
6.802	219.039	-6.647
6.804	219.122	-6.646
6.806	219.206	-6.646
6.808	219.290	-6.646
6.811	219.371	-6.646
6.813	219.456	-6.646
6.815	219.541	-6.646
6.817	219.626	-6.646
6.819	219.709	-6.646
6.822	219.789	-6.646
6.824	219.876	-6.646
6.826	219.956	-6.646
6.828	220.041	-6.646
6.830	220.127	-6.646
6.833	220.207	-6.646
6.835	220.287	-6.647
6.837	220.374	-6.647
6.839	220.459	-6.646
6.841	220.541	-6.647
6.844	220.625	-6.647
6.846	220.705	-6.647
6.848	220.791	-6.646
6.850	220.875	-6.646
6.852	220.956	-6.646
6.854	221.039	-6.646
6.857	221.121	-6.645
6.859	221.209	-6.645
6.861	221.290	-6.645
6.863	221.377	-6.644
6.865	221.460	-6.644
6.868	221.542	-6.644
6.870	221.623	-6.644
6.872	221.708	-6.644
6.874	221.795	-6.643
6.876	221.876	-6.643
6.879	221.960	-6.643
6.881	222.043	-6.643
6.883	222.127	-6.643
6.885	222.209	-6.643
6.887	222.294	-6.643
6.890	222.377	-6.643
6.892	222.460	-6.643
6.894	222.541	-6.642
6.896	222.628	-6.642
6.898	222.711	-6.642
6.901	222.790	-6.641
6.903	222.872	-6.641
6.905	222.957	-6.641
6.907	223.040	-6.641
6.909	223.123	-6.641
6.911	223.207	-6.641
6.914	223.291	-6.641
6.916	223.378	-6.641
6.918	223.458	-6.641
6.920	223.541	-6.641
6.922	223.623	-6.642
6.925	223.705	-6.642
6.927	223.792	-6.642
6.929	223.878	-6.641
6.931	223.961	-6.641
6.933	224.043	-6.641
6.936	224.121	-6.642
6.938	224.210	-6.642
6.940	224.292	-6.642
6.942	224.373	-6.642
6.944	224.458	-6.642
6.947	224.540	-6.642
6.949	224.626	-6.642
6.951	224.707	-6.642
6.953	224.792	-6.641
6.955	224.876	-6.641
6.957	224.962	-6.641
6.960	225.046	-6.641
6.962	225.126	-6.640
6.964	225.208	-6.640
6.966	225.290	-6.640
6.968	225.375	-6.640
6.971	225.462	-6.640
6.973	225.543	-6.640
6.975	225.627	-6.640
6.977	225.710	-6.639
6.979	225.795	-6.639
6.982	225.880	-6.639
6.984	225.960	-6.639
6.986	226.043	-6.639
6.988	226.128	-6.639
6.990	226.209	-6.640
6.993	226.293	-6.640
6.995	226.373	-6.639
6.997	226.461	-6.640
6.999	226.540	-6.640
7.001	226.629	-6.639
7.004	226.711	-6.639
7.006	226.792	-6.639
7.008	226.874	-6.639
7.010	226.957	-6.639
7.012	227.039	-6.639
7.014	227.124	-6.639
7.017	227.209	-6.639
7.019	227.288	-6.639
7.021	227.373	-6.639
7.023	227.454	-6.639
7.025	227.539	-6.638
7.028	227.621	-6.638
7.030	227.706	-6.638
7.032	227.790	-6.637
7.034	227.875	-6.637
7.036	227.959	-6.636
7.039	228.045	-6.636
7.041	228.127	-6.635
7.043	228.211	-6.634
7.045	228.294	-6.634
7.047	228.378	-6.634
7.050	228.458	-6.634
7.052	228.547	-6.633
7.054	228.626	-6.633
7.056	228.707	-6.633
7.058	228.793	-6.633
7.060	228.876	-6.633
7.063	228.957	-6.633
7.065	229.043	-6.633
7.067	229.131	-6.633
7.069	229.208	-6.632
7.071	229.301	-6.632
7.074	229.384	-6.632
7.076	229.463	-6.632
7.078	229.549	-6.632
7.080	229.632	-6.632
7.082	229.716	-6.632
7.085	229.801	-6.631
7.087	229.881	-6.631
7.089	229.966	-6.631
7.091	230.050	-6.631
7.093	230.131	-6.631
7.096	230.213	-6.631
7.098	230.296	-6.630
7.100	230.378	-6.630
7.102	230.462	-6.630
7.104	230.542	-6.630
7.107	230.629	-6.629
7.109	230.712	-6.629
7.111	230.796	-6.629
7.113	230.881	-6.629
7.115	230.966	-6.628
7.117	231.048	-6.628
7.120	231.130	-6.628
7.122	231.215	-6.628
7.124	231.301	-6.628
7.126	231.383	-6.628
7.128	231.466	-6.628
7.131	231.548	-6.628
7.133	231.631	-6.628
7.135	231.719	-6.627
7.137	231.800	-6.627
7.139	231.883	-6.627
7.142	231.964	-6.626
7.144	232.045	-6.625
7.146	232.131	-6.625
7.148	232.216	-6.625
7.150	232.300	-6.625
7.153	232.385	-6.625
7.155	232.469	-6.625
7.157	232.548	-6.625
7.159	232.636	-6.625
7.161	232.716	-6.625
7.164	232.800	-6.625
7.166	232.886	-6.625
7.168	232.971	-6.625
7.170	233.056	-6.625
7.172	233.137	-6.625
7.174	233.218	-6.625
7.177	233.302	-6.624
7.179	233.383	-6.624
7.181	233.465	-6.624
7.183	233.544	-6.624
7.185	233.626	-6.624
7.188	233.709	-6.624
7.190	233.791	-6.624
7.192	233.882	-6.623
7.194	233.969	-6.623
7.196	234.052	-6.622
7.199	234.136	-6.622
7.201	234.218	-6.622
7.203	234.305	-6.621
7.205	234.384	-6.621
7.207	234.467	-6.620
7.210	234.550	-6.619
7.212	234.634	-6.619
7.214	234.717	-6.619
7.216	234.799	-6.619
7.218	234.885	-6.619
7.220	234.969	-6.619
7.223	235.055	-6.618
7.225	235.135	-6.618
7.227	235.216	-6.618
7.229	235.303	-6.618
7.231	235.384	-6.618
7.234	235.469	-6.618
7.236	235.553	-6.618
7.238	235.639	-6.618
7.240	235.722	-6.617
7.242	235.803	-6.617
7.245	235.889	-6.617
7.247	235.969	-6.617
7.249	236.056	-6.617
7.251	236.138	-6.617
7.253	236.220	-6.616
7.256	236.303	-6.616
7.258	236.384	-6.616
7.260	236.470	-6.616
7.262	236.553	-6.615
7.264	236.634	-6.615
7.267	236.721	-6.615
7.269	236.804	-6.615
7.271	236.886	-6.615
7.273	236.973	-6.614
7.275	237.052	-6.614
7.277	237.136	-6.614
7.280	237.217	-6.614
7.282	237.303	-6.613
7.284	237.384	-6.613
7.286	237.469	-6.613
7.288	237.551	-6.613
7.291	237.637	-6.613
7.293	237.718	-6.612
7.295	237.808	-6.612
7.297	237.887	-6.613
7.299	237.968	-6.612
7.302	238.053	-6.612
7.304	238.135	-6.613
7.306	238.224	-6.612
7.308	238.305	-6.612
7.310	238.392	-6.612
7.313	238.472	-6.611
7.315	238.557	-6.611
7.317	238.639	-6.611
7.319	238.721	-6.610
7.321	238.808	-6.610
7.323	238.888	-6.610
7.326	238.969	-6.609
7.328	239.056	-6.609
7.330	239.138	-6.609
7.332	239.224	-6.609
7.334	239.306	-6.608
7.337	239.390	-6.608
7.339	239.474	-6.608
7.341	239.555	-6.608
7.343	239.639	-6.608
7.345	239.726	-6.608
7.348	239.810	-6.608
7.350	239.892	-6.608
7.352	239.975	-6.608
7.354	240.056	-6.608
7.356	240.140	-6.607
7.359	240.225	-6.608
7.361	240.312	-6.608
7.363	240.393	-6.607
7.365	240.475	-6.607
7.367	240.558	-6.606
7.370	240.640	-6.606
7.372	240.726	-6.605
7.374	240.809	-6.605
7.376	240.895	-6.605
7.378	240.975	-6.605
7.380	241.058	-6.605
7.383	241.145	-6.604
7.385	241.229	-6.604
7.387	241.311	-6.604
7.389	241.395	-6.604
7.391	241.480	-6.603
7.394	241.562	-6.603
7.396	241.648	-6.603
7.398	241.729	-6.603
7.400	241.811	-6.603
7.402	241.895	-6.603
7.405	241.979	-6.602
7.407	242.061	-6.602
7.409	242.145	-6.602
7.411	242.226	-6.602
7.413	242.311	-6.601
7.416	242.393	-6.601
7.418	242.476	-6.601
7.420	242.560	-6.601
7.422	242.647	-6.600
7.424	242.726	-6.600
7.427	242.815	-6.600
7.429	242.896	-6.600
7.431	242.980	-6.601
7.433	243.065	-6.601
7.435	243.147	-6.601
7.437	243.232	-6.601
7.440	243.313	-6.601
7.442	243.399	-6.602
7.444	243.481	-6.602
7.446	243.562	-6.602
7.448	243.648	-6.602
7.451	243.732	-6.602
7.453	243.814	-6.602
7.455	243.895	-6.602
7.457	243.981	-6.602
7.459	244.065	-6.601
7.462	244.146	-6.602
7.464	244.230	-6.602
7.466	244.313	-6.601
7.468	244.399	-6.601
7.470	244.480	-6.601
7.473	244.562	-6.602
7.475	244.645	-6.602
7.477	244.729	-6.601
7.479	244.814	-6.601
7.481	244.902	-6.601
7.483	244.980	-6.601
7.486	245.063	-6.600
7.488	245.146	-6.599
7.490	245.234	-6.599
7.492	245.315	-6.598
7.494	245.400	-6.598
7.497	245.481	-6.598
7.499	245.565	-6.597
7.501	245.642	-6.597
7.503	245.728	-6.598
7.505	245.808	-6.598
7.508	245.897	-6.599
7.510	245.979	-6.600
7.512	246.067	-6.600
7.514	246.146	-6.601
7.516	246.233	-6.601
7.519	246.315	-6.601
7.521	246.404	-6.601
7.523	246.484	-6.601
7.525	246.565	-6.601
7.527	246.649	-6.601
7.530	246.734	-6.600
7.532	246.819	-6.600
7.534	246.901	-6.600
7.536	246.987	-6.600
7.538	247.068	-6.599
7.540	247.148	-6.599
7.543	247.231	-6.598
7.545	247.314	-6.598
7.547	247.400	-6.598
7.549	247.482	-6.597
7.551	247.569	-6.597
7.554	247.649	-6.597
7.556	247.733	-6.597
7.558	247.817	-6.596
7.560	247.905	-6.597
7.562	247.981	-6.597
7.565	248.071	-6.597
7.567	248.151	-6.597
7.569	248.238	-6.597
7.571	248.322	-6.597
7.573	248.399	-6.597
7.576	248.485	-6.598
7.578	248.568	-6.598
7.580	248.653	-6.598
7.582	248.734	-6.598
7.584	248.821	-6.598
7.586	248.905	-6.598
7.589	248.987	-6.597
7.591	249.071	-6.597
7.593	249.158	-6.597
7.595	249.238	-6.597
7.597	249.323	-6.597
7.600	249.404	-6.597
7.602	249.492	-6.597
7.604	249.573	-6.596
7.606	249.654	-6.596
7.608	249.740	-6.596
7.611	249.823	-6.596
7.613	249.905	-6.596
7.615	249.988	-6.596
7.617	250.073	-6.596
7.619	250.156	-6.596
7.622	250.240	-6.596
7.624	250.326	-6.596
7.626	250.405	-6.596
7.628	250.491	-6.596
7.630	250.576	-6.595
7.633	250.659	-6.595
7.635	250.748	-6.594
7.637	250.824	-6.594
7.639	250.913	-6.594
7.641	250.996	-6.594
7.643	251.076	-6.593
7.646	251.161	-6.593
7.648	251.239	-6.593
7.650	251.326	-6.593
7.652	251.413	-6.593
7.654	251.495	-6.592
7.657	251.580	-6.592
7.659	251.664	-6.593
7.661	251.748	-6.593
7.663	251.833	-6.593
7.665	251.915	-6.593
7.668	251.999	-6.593
7.670	252.080	-6.593
7.672	252.168	-6.592
7.674	252.247	-6.593
7.676	252.332	-6.593
7.679	252.414	-6.592
7.681	252.498	-6.592
7.683	252.581	-6.592
7.685	252.665	-6.592
7.687	252.746	-6.592
7.690	252.832	-6.592
7.692	252.914	-6.592
7.694	253.000	-6.592
7.696	253.085	-6.592
7.698	253.166	-6.592
7.700	253.251	-6.592
7.703	253.337	-6.592
7.705	253.418	-6.592
7.707	253.498	-6.592
7.709	253.582	-6.592
7.711	253.666	-6.593
7.714	253.746	-6.593
7.716	253.833	-6.592
7.718	253.916	-6.593
7.720	254.000	-6.593
7.722	254.073	-6.593
7.725	254.164	-6.594
7.727	254.249	-6.594
7.729	254.333	-6.594
7.731	254.414	-6.593
7.733	254.499	-6.593
7.736	254.582	-6.594
7.738	254.665	-6.594
7.740	254.746	-6.593
7.742	254.829	-6.593
7.744	254.917	-6.592
7.746	255.000	-6.592
7.749	255.083	-6.592
7.751	255.166	-6.592
7.753	255.248	-6.592
7.755	255.332	-6.592
7.757	255.411	-6.592
7.760	255.502	-6.592
7.762	255.585	-6.592
7.764	255.670	-6.591
7.766	255.753	-6.591
7.768	255.829	-6.591
7.771	255.914	-6.591
7.773	256.000	-6.591
7.775	256.086	-6.591
7.777	256.172	-6.591
7.779	256.256	-6.591
7.782	256.336	-6.591
7.784	256.420	-6.591
7.786	256.503	-6.592
7.788	256.589	-6.592
7.790	256.670	-6.592
7.793	256.751	-6.592
7.795	256.838	-6.592
7.797	256.921	-6.592
7.799	257.003	-6.591
7.801	257.085	-6.591
7.803	257.172	-6.590
7.806	257.259	-6.590
7.808	257.340	-6.590
7.810	257.422	-6.590
7.812	257.504	-6.590
7.814	257.588	-6.590
7.817	257.670	-6.590
7.819	257.757	-6.590
7.821	257.836	-6.591
7.823	257.922	-6.591
7.825	258.006	-6.591
7.828	258.090	-6.591
7.830	258.175	-6.591
7.832	258.256	-6.591
7.834	258.338	-6.591
7.836	258.423	-6.591
7.839	258.506	-6.591
7.841	258.589	-6.591
7.843	258.672	-6.591
7.845	258.753	-6.590
7.847	258.836	-6.590
7.849	258.921	-6.590
7.852	259.001	-6.589
7.854	259.089	-6.589
7.856	259.170	-6.588
7.858	259.255	-6.588
7.860	259.339	-6.588
7.863	259.421	-6.587
7.865	259.503	-6.587
7.867	259.583	-6.587
7.869	259.664	-6.587
7.871	259.751	-6.586
7.874	259.833	-6.586
7.876	259.914	-6.586
7.878	259.995	-6.586
7.880	260.077	-6.585
7.882	260.166	-6.585
7.885	260.246	-6.585
7.887	260.330	-6.585
7.889	260.413	-6.584
7.891	260.496	-6.583
7.893	260.579	-6.583
7.896	260.665	-6.582
7.898	260.755	-6.582
7.900	260.839	-6.582
7.902	260.923	-6.582
7.904	261.004	-6.582
7.906	261.090	-6.582
7.909	261.174	-6.582
7.911	261.257	-6.581
7.913	261.341	-6.581
7.915	261.422	-6.582
7.917	261.505	-6.582
7.920	261.593	-6.581
7.922	261.673	-6.581
7.924	261.756	-6.581
7.926	261.839	-6.581
7.928	261.921	-6.581
7.931	262.007	-6.581
7.933	262.094	-6.581
7.935	262.175	-6.581
7.937	262.259	-6.580
7.939	262.341	-6.580
7.942	262.421	-6.580
7.944	262.502	-6.579
7.946	262.589	-6.579
7.948	262.674	-6.579
7.950	262.759	-6.578
7.953	262.844	-6.578
7.955	262.926	-6.578
7.957	263.010	-6.578
7.959	263.093	-6.578
7.961	263.179	-6.578
7.963	263.262	-6.578
7.966	263.344	-6.577
7.968	263.426	-6.577
7.970	263.510	-6.577
7.972	263.593	-6.577
7.974	263.677	-6.576
7.977	263.756	-6.575
7.979	263.844	-6.575
7.981	263.927	-6.574
7.983	264.012	-6.574
7.985	264.094	-6.574
7.988	264.180	-6.574
7.990	264.262	-6.573
7.992	264.346	-6.573
7.994	264.432	-6.573
7.996	264.513	-6.573
7.999	264.600	-6.573
8.001	264.680	-6.574
8.003	264.764	-6.574
8.005	264.845	-6.573
8.007	264.930	-6.573
8.009	265.011	-6.573
8.012	265.096	-6.573
8.014	265.176	-6.573
8.016	265.265	-6.573
8.018	265.344	-6.573
8.020	265.425	-6.572
8.023	265.513	-6.572
8.025	265.595	-6.572
8.027	265.679	-6.572
8.029	265.761	-6.571
8.031	265.847	-6.571
8.034	265.929	-6.571
8.036	266.012	-6.570
8.038	266.093	-6.570
8.040	266.177	-6.570
8.042	266.260	-6.570
8.045	266.347	-6.570
8.047	266.429	-6.569
8.049	266.515	-6.569
8.051	266.597	-6.569
8.053	266.680	-6.569
8.056	266.764	-6.569
8.058	266.846	-6.568
8.060	266.928	-6.567
8.062	267.011	-6.567
8.064	267.097	-6.567
8.066	267.179	-6.567
8.069	267.262	-6.567
8.071	267.350	-6.567
8.073	267.430	-6.568
8.075	267.515	-6.567
8.077	267.598	-6.567
8.080	267.681	-6.567
8.082	267.764	-6.567
8.084	267.842	-6.567
8.086	267.935	-6.567
8.088	268.014	-6.567
8.091	268.099	-6.567
8.093	268.181	-6.566
8.095	268.263	-6.566
8.097	268.345	-6.566
8.099	268.434	-6.565
8.102	268.519	-6.566
8.104	268.601	-6.566
8.106	268.684	-6.566
8.108	268.767	-6.566
8.110	268.851	-6.565
8.112	268.935	-6.566
8.115	269.015	-6.566
8.117	269.101	-6.566
8.119	269.185	-6.566
8.121	269.267	-6.567
8.123	269.351	-6.567
8.126	269.434	-6.567
8.128	269.518	-6.567
8.130	269.600	-6.567
8.132	269.682	-6.567
8.134	269.765	-6.567
8.137	269.849	-6.567
8.139	269.932	-6.567
8.141	270.015	-6.566
8.143	270.099	-6.566
8.145	270.181	-6.566
8.148	270.267	-6.566
8.150	270.352	-6.566
8.152	270.438	-6.566
8.154	270.518	-6.566
8.156	270.603	-6.566
8.159	270.684	-6.565
8.161	270.768	-6.565
8.163	270.851	-6.565
8.165	270.934	-6.565
8.167	271.014	-6.565
8.169	271.099	-6.565
8.172	271.185	-6.564
8.174	271.268	-6.564
8.176	271.354	-6.563
8.178	271.437	-6.564
8.180	271.520	-6.564
8.183	271.605	-6.564
8.185	271.688	-6.564
8.187	271.771	-6.563
8.189	271.853	-6.563
8.191	271.936	-6.563
8.194	272.020	-6.563
8.196	272.104	-6.562
8.198	272.188	-6.562
8.200	272.269	-6.562
8.202	272.355	-6.562
8.205	272.438	-6.562
8.207	272.519	-6.562
8.209	272.601	-6.562
8.211	272.684	-6.561
8.213	272.767	-6.561
8.216	272.852	-6.561
8.218	272.936	-6.561
8.220	273.017	-6.561
8.222	273.106	-6.561
8.224	273.190	-6.560
8.226	273.264	-6.560
8.229	273.354	-6.559
8.231	273.441	-6.559
8.233	273.519	-6.558
8.235	273.605	-6.558
8.237	273.687	-6.557
8.240	273.770	-6.557
8.242	273.857	-6.557
8.244	273.938	-6.556
8.246	274.021	-6.556
8.248	274.105	-6.556
8.251	274.189	-6.556
8.253	274.271	-6.557
8.255	274.356	-6.557
8.257	274.436	-6.557
8.259	274.519	-6.557
8.262	274.605	-6.557
8.264	274.688	-6.557
8.266	274.770	-6.557
8.268	274.859	-6.557
8.270	274.938	-6.557
8.272	275.018	-6.556
8.275	275.106	-6.556
8.277	275.192	-6.555
8.279	275.273	-6.555
8.281	275.357	-6.554
8.283	275.440	-6.554
8.286	275.524	-6.554
8.288	275.608	-6.554
8.290	275.688	-6.554
8.292	275.771	-6.554
8.294	275.855	-6.554
8.297	275.939	-6.554
8.299	276.019	-6.554
8.301	276.105	-6.553
8.303	276.189	-6.553
8.305	276.272	-6.552
8.308	276.356	-6.552
8.310	276.440	-6.552
8.312	276.524	-6.551
8.314	276.606	-6.551
8.316	276.690	-6.551
8.319	276.771	-6.551
8.321	276.860	-6.551
8.323	276.939	-6.551
8.325	277.026	-6.551
8.327	277.107	-6.551
8.329	277.192	-6.551
8.332	277.273	-6.550
8.334	277.359	-6.550
8.336	277.444	-6.550
8.338	277.526	-6.550
8.340	277.607	-6.549
8.343	277.685	-6.549
8.345	277.773	-6.548
8.347	277.857	-6.547
8.349	277.942	-6.547
8.351	278.025	-6.547
8.354	278.108	-6.547
8.356	278.194	-6.546
8.358	278.275	-6.546
8.360	278.362	-6.545
8.362	278.443	-6.545
8.365	278.529	-6.545
8.367	278.610	-6.545
8.369	278.696	-6.546
8.371	278.779	-6.545
8.373	278.863	-6.545
8.375	278.944	-6.545
8.378	279.027	-6.545
8.380	279.111	-6.545
8.382	279.195	-6.546
8.384	279.278	-6.546
8.386	279.360	-6.546
8.389	279.444	-6.546
8.391	279.529	-6.546
8.393	279.610	-6.546
8.395	279.697	-6.546
8.397	279.778	-6.547
8.400	279.860	-6.547
8.402	279.945	-6.547
8.404	280.029	-6.547
8.406	280.106	-6.547
8.408	280.196	-6.547
8.411	280.279	-6.547
8.413	280.362	-6.546
8.415	280.442	-6.546
8.417	280.529	-6.545
8.419	280.614	-6.545
8.422	280.697	-6.544
8.424	280.784	-6.543
8.426	280.864	-6.542
8.428	280.947	-6.542
8.430	281.034	-6.541
8.432	281.114	-6.541
8.435	281.199	-6.540
8.437	281.284	-6.539
8.439	281.366	-6.539
8.441	281.446	-6.538
8.443	281.533	-6.538
8.446	281.615	-6.538
8.448	281.700	-6.538
8.450	281.781	-6.538
8.452	281.866	-6.538
8.454	281.950	-6.537
8.457	282.034	-6.537
8.459	282.117	-6.537
8.461	282.200	-6.537
8.463	282.285	-6.537
8.465	282.372	-6.537
8.468	282.453	-6.537
8.470	282.534	-6.536
8.472	282.618	-6.537
8.474	282.700	-6.537
8.476	282.784	-6.536
8.479	282.869	-6.536
8.481	282.953	-6.536
8.483	283.036	-6.536
8.485	283.121	-6.536
8.487	283.208	-6.536
8.489	283.289	-6.535
8.492	283.369	-6.535
8.494	283.451	-6.535
8.496	283.535	-6.535
8.498	283.623	-6.536
8.500	283.703	-6.536
8.503	283.785	-6.537
8.505	283.868	-6.537
8.507	283.952	-6.538
8.509	284.036	-6.539
8.511	284.120	-6.540
8.514	284.201	-6.541
8.516	284.289	-6.541
8.518	284.371	-6.541
8.520	284.449	-6.542
8.522	284.538	-6.542
8.525	284.620	-6.542
8.527	284.705	-6.542
8.529	284.786	-6.542
8.531	284.872	-6.542
8.533	284.952	-6.542
8.535	285.038	-6.541
8.538	285.122	-6.541
8.540	285.204	-6.541
8.542	285.289	-6.541
8.544	285.369	-6.541
8.546	285.453	-6.541
8.549	285.539	-6.542
8.551	285.620	-6.542
8.553	285.703	-6.542
8.555	285.784	-6.542
8.557	285.873	-6.543
8.560	285.955	-6.543
8.562	286.039	-6.543
8.564	286.118	-6.543
8.566	286.201	-6.543
8.568	286.287	-6.542
8.571	286.370	-6.542
8.573	286.455	-6.542
8.575	286.535	-6.541
8.577	286.622	-6.541
8.579	286.702	-6.540
8.582	286.787	-6.540
8.584	286.874	-6.539
8.586	286.957	-6.539
8.588	287.041	-6.539
8.590	287.126	-6.539
8.592	287.204	-6.539
8.595	287.289	-6.538
8.597	287.374	-6.538
8.599	287.456	-6.537
8.601	287.538	-6.537
8.603	287.622	-6.537
8.606	287.706	-6.538
8.608	287.788	-6.538
8.610	287.871	-6.538
8.612	287.953	-6.538
8.614	288.039	-6.538
8.617	288.123	-6.538
8.619	288.202	-6.538
8.621	288.289	-6.539
8.623	288.374	-6.539
8.625	288.457	-6.539
8.628	288.538	-6.539
8.630	288.625	-6.539
8.632	288.709	-6.539
8.634	288.791	-6.539
8.636	288.873	-6.539
8.638	288.962	-6.539
8.641	289.042	-6.539
8.643	289.126	-6.539
8.645	289.214	-6.539
8.647	289.293	-6.539
8.649	289.378	-6.539
8.652	289.463	-6.539
8.654	289.544	-6.539
8.656	289.626	-6.539
8.658	289.703	-6.540
8.660	289.797	-6.540
8.663	289.871	-6.541
8.665	289.961	-6.541
8.667	290.045	-6.541
8.669	290.124	-6.542
8.671	290.207	-6.543
8.674	290.292	-6.543
8.676	290.375	-6.543
8.678	290.459	-6.544
8.680	290.546	-6.544
8.682	290.629	-6.544
8.685	290.712	-6.544
8.687	290.796	-6.545
8.689	290.876	-6.545
8.691	290.962	-6.546
8.693	291.044	-6.546
8.695	291.124	-6.547
8.698	291.209	-6.548
8.700	291.293	-6.548
8.702	291.377	-6.549
8.704	291.463	-6.550
8.706	291.544	-6.550
8.709	291.625	-6.551
8.711	291.712	-6.551
8.713	291.792	-6.552
8.715	291.878	-6.552
8.717	291.965	-6.552
8.720	292.042	-6.552
8.722	292.127	-6.552
8.724	292.211	-6.553
8.726	292.291	-6.553
8.728	292.376	-6.553
8.731	292.461	-6.553
8.733	292.547	-6.553
8.735	292.629	-6.553
8.737	292.710	-6.554
8.739	292.793	-6.554
8.742	292.876	-6.554
8.744	292.961	-6.554
8.746	293.043	-6.554
8.748	293.126	-6.554
8.750	293.210	-6.555
8.752	293.296	-6.555
8.755	293.375	-6.555
8.757	293.460	-6.556
8.759	293.547	-6.556
8.761	293.629	-6.556
8.763	293.712	-6.556
8.766	293.796	-6.556
8.768	293.877	-6.557
8.770	293.961	-6.557
8.772	294.044	-6.558
8.774	294.128	-6.558
8.777	294.213	-6.558
8.779	294.297	-6.558
8.781	294.380	-6.559
8.783	294.463	-6.560
8.785	294.546	-6.560
8.788	294.628	-6.561
8.790	294.714	-6.562
8.792	294.796	-6.562
8.794	294.880	-6.562
8.796	294.962	-6.563
8.798	295.047	-6.563
8.801	295.127	-6.563
8.803	295.213	-6.564
8.805	295.293	-6.564
8.807	295.380	-6.564
8.809	295.464	-6.564
8.812	295.547	-6.565
8.814	295.631	-6.565
8.816	295.714	-6.566
8.818	295.798	-6.566
8.820	295.883	-6.567
8.823	295.966	-6.568
8.825	296.049	-6.568
8.827	296.131	-6.568
8.829	296.215	-6.569
8.831	296.296	-6.569
8.834	296.378	-6.569
8.836	296.463	-6.570
8.838	296.546	-6.570
8.840	296.629	-6.571
8.842	296.714	-6.571
8.845	296.801	-6.571
8.847	296.883	-6.571
8.849	296.964	-6.572
8.851	297.049	-6.571
8.853	297.132	-6.572
8.855	297.214	-6.573
8.858	297.297	-6.573
8.860	297.382	-6.573
8.862	297.464	-6.573
8.864	297.546	-6.573
8.866	297.630	-6.574
8.869	297.713	-6.575
8.871	297.795	-6.575
8.873	297.882	-6.576
8.875	297.966	-6.576
8.877	298.048	-6.576
8.880	298.132	-6.577
8.882	298.216	-6.577
8.884	298.297	-6.578
8.886	298.381	-6.578
8.888	298.466	-6.578
8.891	298.548	-6.579
8.893	298.632	-6.579
8.895	298.713	-6.579
8.897	298.798	-6.580
8.899	298.882	-6.581
8.901	298.963	-6.581
8.904	299.047	-6.581
8.906	299.133	-6.582
8.908	299.217	-6.583
8.910	299.298	-6.583
8.912	299.380	-6.584
8.915	299.464	-6.585
8.917	299.550	-6.585
8.919	299.631	-6.585
8.921	299.715	-6.586
8.923	299.801	-6.586
8.926	299.884	-6.586
8.928	299.964	-6.587
8.930	300.053	-6.588
8.932	300.131	-6.589
8.934	300.213	-6.589
8.937	300.298	-6.590
8.939	300.383	-6.591
8.941	300.469	-6.591
8.943	300.552	-6.592
8.945	300.634	-6.593
8.948	300.718	-6.594
8.950	300.801	-6.595
8.952	300.885	-6.596
8.954	300.967	-6.597
8.956	301.054	-6.598
8.958	301.136	-6.599
8.961	301.219	-6.600
8.963	301.305	-6.601
8.965	301.385	-6.602
8.967	301.470	-6.603
8.969	301.553	-6.604
8.972	301.635	-6.604
8.974	301.718	-6.605
8.976	301.807	-6.606
8.978	301.889	-6.606
8.980	301.972	-6.607
8.983	302.051	-6.608
8.985	302.133	-6.608
8.987	302.219	-6.609
8.989	302.303	-6.610
8.991	302.388	-6.610
8.994	302.469	-6.611
8.996	302.553	-6.612
8.998	302.636	-6.613
9.000	302.722	-6.614
9.002	302.802	-6.615
9.005	302.886	-6.616
9.007	302.968	-6.617
9.009	303.049	-6.619
9.011	303.130	-6.620
9.013	303.216	-6.622
9.015	303.300	-6.623
9.018	303.386	-6.624
9.020	303.468	-6.624
9.022	303.553	-6.625
9.024	303.635	-6.626
9.026	303.721	-6.627
9.029	303.802	-6.628
9.031	303.886	-6.628
9.033	303.968	-6.629
9.035	304.051	-6.629
9.037	304.135	-6.630
9.040	304.220	-6.631
9.042	304.302	-6.632
9.044	304.385	-6.633
9.046	304.468	-6.634
9.048	304.553	-6.634
9.051	304.636	-6.635
9.053	304.719	-6.636
9.055	304.800	-6.638
9.057	304.885	-6.639
9.059	304.969	-6.640
9.061	305.053	-6.641
9.064	305.135	-6.643
9.066	305.222	-6.644
9.068	305.303	-6.645
9.070	305.387	-6.646
9.072	305.472	-6.647
9.075	305.551	-6.648
9.077	305.637	-6.649
9.079	305.719	-6.650
9.081	305.801	-6.651
9.083	305.886	-6.652
9.086	305.970	-6.653
9.088	306.054	-6.653
9.090	306.136	-6.654
9.092	306.218	-6.655
9.094	306.303	-6.656
9.097	306.389	-6.657
9.099	306.471	-6.658
9.101	306.555	-6.659
9.103	306.638	-6.659
9.105	306.720	-6.660
9.108	306.805	-6.662
9.110	306.888	-6.663
9.112	306.975	-6.664
9.114	307.057	-6.666
9.116	307.140	-6.667
9.118	307.222	-6.668
9.121	307.305	-6.670
9.123	307.384	-6.671
9.125	307.470	-6.673
9.127	307.551	-6.674
9.129	307.641	-6.676
9.132	307.721	-6.678
9.134	307.804	-6.679
9.136	307.888	-6.680
9.138	307.973	-6.681
9.140	308.058	-6.683
9.143	308.141	-6.684
9.145	308.221	-6.686
9.147	308.305	-6.686
9.149	308.388	-6.687
9.151	308.470	-6.688
9.154	308.552	-6.689
9.156	308.637	-6.689
9.158	308.723	-6.691
9.160	308.802	-6.692
9.162	308.887	-6.693
9.164	308.971	-6.694
9.167	309.054	-6.695
9.169	309.138	-6.696
9.171	309.219	-6.698
9.173	309.304	-6.699
9.175	309.388	-6.700
9.178	309.471	-6.702
9.180	309.552	-6.703
9.182	309.637	-6.704
9.184	309.719	-6.705
9.186	309.804	-6.707
9.189	309.889	-6.708
9.191	309.971	-6.710
9.193	310.059	-6.712
9.195	310.137	-6.713
9.197	310.225	-6.715
9.200	310.305	-6.717
9.202	310.386	-6.719
9.204	310.474	-6.720
9.206	310.554	-6.721
9.208	310.635	-6.723
9.211	310.717	-6.724
9.213	310.800	-6.725
9.215	310.887	-6.726
9.217	310.972	-6.727
9.219	311.056	-6.728
9.221	311.136	-6.730
9.224	311.220	-6.731
9.226	311.301	-6.732
9.228	311.388	-6.734
9.230	311.471	-6.735
9.232	311.553	-6.737
9.235	311.639	-6.738
9.237	311.719	-6.740
9.239	311.801	-6.742
9.241	311.885	-6.743
9.243	311.970	-6.745
9.246	312.051	-6.746
9.248	312.137	-6.748
9.250	312.218	-6.749
9.252	312.304	-6.751
9.254	312.383	-6.752
9.257	312.471	-6.754
9.259	312.553	-6.756
9.261	312.638	-6.757
9.263	312.720	-6.759
9.265	312.805	-6.761
9.268	312.887	-6.763
9.270	312.971	-6.766
9.272	313.055	-6.768
9.274	313.135	-6.770
9.276	313.222	-6.772
9.278	313.305	-6.774
9.281	313.388	-6.776
9.283	313.470	-6.778
9.285	313.551	-6.781
9.287	313.631	-6.783
9.289	313.714	-6.785
9.292	313.801	-6.787
9.294	313.887	-6.789
9.296	313.970	-6.791
9.298	314.050	-6.793
9.300	314.131	-6.795
9.303	314.219	-6.797
9.305	314.301	-6.799
9.307	314.386	-6.801
9.309	314.468	-6.802
9.311	314.550	-6.804
9.314	314.632	-6.806
9.316	314.717	-6.808
9.318	314.800	-6.810
9.320	314.883	-6.812
9.322	314.968	-6.814
9.324	315.053	-6.817
9.327	315.132	-6.818
9.329	315.217	-6.821
9.331	315.300	-6.823
9.333	315.385	-6.825
9.335	315.467	-6.827
9.338	315.553	-6.829
9.340	315.634	-6.831
9.342	315.714	-6.833
9.344	315.793	-6.835
9.346	315.872	-6.837
9.349	315.961	-6.839
9.351	316.042	-6.841
9.353	316.133	-6.843
9.355	316.217	-6.845
9.357	316.300	-6.847
9.360	316.384	-6.849
9.362	316.469	-6.851
9.364	316.554	-6.854
9.366	316.636	-6.856
9.368	316.719	-6.859
9.371	316.803	-6.861
9.373	316.888	-6.864
9.375	316.967	-6.867
9.377	317.053	-6.870
9.379	317.135	-6.873
9.381	317.219	-6.876
9.384	317.304	-6.878
9.386	317.387	-6.880
9.388	317.471	-6.883
9.390	317.552	-6.885
9.392	317.636	-6.888
9.395	317.719	-6.890
9.397	317.799	-6.893
9.399	317.883	-6.896
9.401	317.971	-6.898
9.403	318.050	-6.900
9.406	318.138	-6.903
9.408	318.217	-6.905
9.410	318.300	-6.908
9.412	318.384	-6.910
9.414	318.467	-6.913
9.417	318.551	-6.915
9.419	318.632	-6.918
9.421	318.718	-6.921
9.423	318.802	-6.924
9.425	318.883	-6.927
9.427	318.965	-6.930
9.430	319.048	-6.933
9.432	319.133	-6.936
9.434	319.217	-6.939
9.436	319.297	-6.942
9.438	319.381	-6.945
9.441	319.468	-6.948
9.443	319.548	-6.951
9.445	319.635	-6.954
9.447	319.714	-6.957
9.449	319.799	-6.960
9.452	319.879	-6.962
9.454	319.962	-6.965
9.456	320.048	-6.969
9.458	320.135	-6.971
9.460	320.214	-6.974
9.463	320.295	-6.978
9.465	320.376	-6.981
9.467	320.465	-6.985
9.469	320.547	-6.988
9.471	320.630	-6.991
9.474	320.710	-6.995
9.476	320.794	-6.998
9.478	320.875	-7.002
9.480	320.961	-7.005
9.482	321.045	-7.009
9.484	321.130	-7.012
9.487	321.210	-7.016
9.489	321.293	-7.019
9.491	321.376	-7.022
9.493	321.459	-7.026
9.495	321.547	-7.029
9.498	321.629	-7.032
9.500	321.711	-7.035
9.502	321.793	-7.039
9.504	321.875	-7.042
9.506	321.959	-7.045
9.509	322.043	-7.049
9.511	322.128	-7.052
9.513	322.209	-7.056
9.515	322.290	-7.059
9.517	322.375	-7.063
9.520	322.459	-7.067
9.522	322.543	-7.070
9.524	322.627	-7.074
9.526	322.706	-7.078
9.528	322.792	-7.081
9.531	322.877	-7.085
9.533	322.959	-7.089
9.535	323.041	-7.093
9.537	323.127	-7.096
9.539	323.207	-7.100
9.541	323.291	-7.104
9.544	323.375	-7.108
9.546	323.460	-7.112
9.548	323.540	-7.116
9.550	323.623	-7.120
9.552	323.707	-7.124
9.555	323.786	-7.129
9.557	323.873	-7.133
9.559	323.956	-7.137
9.561	324.041	-7.141
9.563	324.123	-7.146
9.566	324.205	-7.150
9.568	324.288	-7.154
9.570	324.369	-7.158
9.572	324.455	-7.163
9.574	324.540	-7.167
9.577	324.619	-7.172
9.579	324.705	-7.177
9.581	324.789	-7.181
9.583	324.871	-7.186
9.585	324.957	-7.190
9.587	325.036	-7.195
9.590	325.121	-7.200
9.592	325.204	-7.205
9.594	325.288	-7.210
9.596	325.373	-7.214
9.598	325.453	-7.218
9.601	325.541	-7.223
9.603	325.622	-7.228
9.605	325.703	-7.233
9.607	325.785	-7.238
9.609	325.868	-7.243
9.612	325.954	-7.248
9.614	326.039	-7.253
9.616	326.120	-7.258
9.618	326.198	-7.263
9.620	326.281	-7.268
9.623	326.368	-7.273
9.625	326.452	-7.278
9.627	326.534	-7.284
9.629	326.614	-7.289
9.631	326.698	-7.295
9.634	326.786	-7.300
9.636	326.867	-7.306
9.638	326.948	-7.311
9.640	327.031	-7.316
9.642	327.117	-7.322
9.644	327.199	-7.328
9.647	327.280	-7.334
9.649	327.365	-7.340
9.651	327.450	-7.345
9.653	327.529	-7.351
9.655	327.611	-7.357
9.658	327.696	-7.363
9.660	327.779	-7.369
9.662	327.864	-7.375
9.664	327.944	-7.381
9.666	328.028	-7.386
9.669	328.112	-7.392
9.671	328.194	-7.398
9.673	328.277	-7.404
9.675	328.362	-7.410
9.677	328.443	-7.416
9.680	328.523	-7.422
9.682	328.612	-7.428
9.684	328.692	-7.434
9.686	328.773	-7.440
9.688	328.859	-7.446
9.690	328.938	-7.452
9.693	329.021	-7.458
9.695	329.106	-7.464
9.697	329.193	-7.471
9.699	329.272	-7.477
9.701	329.350	-7.483
9.704	329.435	-7.490
9.706	329.519	-7.496
9.708	329.605	-7.503
9.710	329.685	-7.510
9.712	329.772	-7.516
9.715	329.855	-7.523
9.717	329.932	-7.530
9.719	330.018	-7.537
9.721	330.100	-7.544
9.723	330.182	-7.550
9.726	330.266	-7.557
9.728	330.350	-7.563
9.730	330.431	-7.570
9.732	330.515	-7.577
9.734	330.599	-7.584
9.737	330.682	-7.590
9.739	330.763	-7.597
9.741	330.848	-7.604
9.743	330.930	-7.611
9.745	331.016	-7.618
9.747	331.101	-7.625
9.750	331.181	-7.633
9.752	331.266	-7.640
9.754	331.345	-7.648
9.756	331.431	-7.655
9.758	331.511	-7.663
9.761	331.596	-7.670
9.763	331.680	-7.677
9.765	331.761	-7.685
9.767	331.844	-7.692
9.769	331.928	-7.700
9.772	332.013	-7.708
9.774	332.095	-7.715
9.776	332.178	-7.723
9.778	332.258	-7.731
9.780	332.339	-7.740
9.783	332.424	-7.748
9.785	332.508	-7.757
9.787	332.591	-7.765
9.789	332.672	-7.774
9.791	332.759	-7.783
9.794	332.839	-7.791
9.796	332.926	-7.799
9.798	333.005	-7.808
9.800	333.089	-7.817
9.802	333.168	-7.825
9.804	333.251	-7.833
9.807	333.333	-7.842
9.809	333.418	-7.850
9.811	333.504	-7.858
9.813	333.582	-7.866
9.815	333.667	-7.875
9.818	333.746	-7.884
9.820	333.834	-7.892
9.822	333.912	-7.901
9.824	333.999	-7.909
9.826	334.084	-7.918
9.829	334.166	-7.927
9.831	334.244	-7.937
9.833	334.329	-7.946
9.835	334.413	-7.955
9.837	334.496	-7.964
9.840	334.577	-7.973
9.842	334.659	-7.983
9.844	334.743	-7.992
9.846	334.829	-8.002
9.848	334.910	-8.012
9.850	334.992	-8.020
9.853	335.078	-8.030
9.855	335.158	-8.039
9.857	335.244	-8.049
9.859	335.323	-8.059
9.861	335.406	-8.068
9.864	335.491	-8.078
9.866	335.572	-8.087
9.868	335.655	-8.097
9.870	335.738	-8.107
9.872	335.823	-8.117
9.875	335.903	-8.127
9.877	335.988	-8.137
9.879	336.069	-8.147
9.881	336.154	-8.158
9.883	336.234	-8.168
9.886	336.316	-8.179
9.888	336.402	-8.189
9.890	336.487	-8.200
9.892	336.568	-8.210
9.894	336.650	-8.221
9.897	336.724	-8.231
9.899	336.810	-8.242
9.901	336.888	-8.252
9.903	336.974	-8.262
9.905	337.058	-8.272
9.907	337.147	-8.282
9.910	337.231	-8.292
9.912	337.311	-8.302
9.914	337.396	-8.313
9.916	337.472	-8.323
9.918	337.551	-8.333
9.921	337.641	-8.344
9.923	337.724	-8.355
9.925	337.807	-8.366
9.927	337.892	-8.377
9.929	337.973	-8.388
9.932	338.060	-8.398
9.934	338.141	-8.409
9.936	338.226	-8.420
9.938	338.305	-8.431
9.940	338.389	-8.443
9.943	338.474	-8.454
9.945	338.554	-8.466
9.947	338.635	-8.477
9.949	338.718	-8.488
9.951	338.800	-8.500
9.953	338.885	-8.512
9.956	338.969	-8.523
9.958	339.053	-8.534
9.960	339.132	-8.545
9.962	339.216	-8.557
9.964	339.299	-8.568
9.967	339.383	-8.579
9.969	339.463	-8.590
9.971	339.547	-8.601
9.973	339.630	-8.613
9.975	339.713	-8.625
9.978	339.797	-8.638
9.980	339.881	-8.650
9.982	339.959	-8.663
9.984	340.043	-8.675
9.986	340.129	-8.687
9.989	340.208	-8.699
9.991	340.290	-8.711
9.993	340.374	-8.724
9.995	340.456	-8.736
9.997	340.533	-8.747
10.000	340.621	-8.759
10.002	340.705	-8.770
10.004	340.783	-8.782
10.006	340.869	-8.794
10.008	340.952	-8.806
10.010	341.034	-8.818
10.013	341.119	-8.830
10.015	341.204	-8.841
10.017	341.284	-8.853
10.019	341.366	-8.866
10.021	341.450	-8.877
10.024	341.533	-8.890
10.026	341.616	-8.902
10.028	341.700	-8.913
10.030	341.780	-8.925
10.032	341.864	-8.937
10.035	341.948	-8.949
10.037	342.032	-8.962
10.039	342.114	-8.974
10.041	342.191	-8.986
10.043	342.273	-8.998
10.046	342.356	-9.010
10.048	342.439	-9.022
10.050	342.524	-9.034
10.052	342.605	-9.046
10.054	342.686	-9.058
10.057	342.775	-9.069
10.059	342.853	-9.080
10.061	342.939	-9.091
10.063	343.018	-9.103
10.065	343.102	-9.115
10.067	343.181	-9.126
10.070	343.268	-9.137
10.072	343.354	-9.149
10.074	343.433	-9.160
10.076	343.516	-9.171
10.078	343.596	-9.184
10.081	343.684	-9.196
10.083	343.765	-9.208
10.085	343.839	-9.219
10.087	343.931	-9.231
10.089	344.016	-9.243
10.092	344.100	-9.254
10.094	344.180	-9.266
10.096	344.262	-9.278
10.098	344.346	-9.289
10.100	344.432	-9.300
10.103	344.512	-9.311
10.105	344.598	-9.323
10.107	344.678	-9.334
10.109	344.759	-9.345
10.111	344.846	-9.356
10.113	344.924	-9.368
10.116	345.008	-9.379
10.118	345.091	-9.391
10.120	345.174	-9.402
10.122	345.255	-9.414
10.124	345.336	-9.425
10.127	345.424	-9.437
10.129	345.507	-9.448
10.131	345.587	-9.459
10.133	345.670	-9.470
10.135	345.756	-9.481
10.138	345.838	-9.492
10.140	345.919	-9.502
10.142	345.999	-9.513
10.144	346.081	-9.525
10.146	346.167	-9.536
10.149	346.246	-9.546
10.151	346.334	-9.557
10.153	346.415	-9.567
10.155	346.500	-9.579
10.157	346.582	-9.590
10.160	346.664	-9.600
10.162	346.748	-9.611
10.164	346.830	-9.621
10.166	346.914	-9.631
10.168	346.999	-9.642
10.170	347.079	-9.652
10.173	347.164	-9.662
10.175	347.244	-9.672
10.177	347.330	-9.682
10.179	347.415	-9.692
10.181	347.496	-9.702
10.184	347.578	-9.712
10.186	347.663	-9.723
10.188	347.743	-9.733
10.190	347.828	-9.743
10.192	347.909	-9.753
10.195	347.993	-9.763
10.197	348.075	-9.772
10.199	348.156	-9.782
10.201	348.241	-9.792
10.203	348.326	-9.801
10.206	348.405	-9.811
10.208	348.489	-9.820
10.210	348.573	-9.829
10.212	348.654	-9.839
10.214	348.736	-9.848
10.216	348.818	-9.858
10.219	348.903	-9.867
10.221	348.985	-9.876
10.223	349.072	-9.886
10.225	349.154	-9.894
10.227	349.236	-9.903
10.230	349.317	-9.913
10.232	349.402	-9.922
10.234	349.486	-9.930
10.236	349.572	-9.939
10.238	349.650	-9.947
10.241	349.733	-9.956
10.243	349.818	-9.964
10.245	349.900	-9.972
10.247	349.983	-9.981
10.249	350.067	-9.989
10.252	350.148	-9.997
10.254	350.233	-10.004
10.256	350.318	-10.012
10.258	350.397	-10.020
10.260	350.484	-10.028
10.263	350.566	-10.036
10.265	350.645	-10.045
10.267	350.727	-10.053
10.269	350.811	-10.060
10.271	350.896	-10.068
10.273	350.982	-10.075
10.276	351.066	-10.083
10.278	351.147	-10.090
10.280	351.225	-10.098
10.282	351.313	-10.105
10.284	351.397	-10.112
10.287	351.480	-10.119
10.289	351.559	-10.126
10.291	351.645	-10.133
10.293	351.727	-10.140
10.295	351.810	-10.148
10.298	351.892	-10.155
10.300	351.976	-10.161
10.302	352.058	-10.168
10.304	352.142	-10.174
10.306	352.226	-10.181
10.309	352.306	-10.189
10.311	352.392	-10.196
10.313	352.473	-10.202
10.315	352.554	-10.209
10.317	352.647	-10.215
10.320	352.729	-10.221
10.322	352.815	-10.227
10.324	352.901	-10.233
10.326	352.979	-10.240
10.328	353.064	-10.245
10.330	353.144	-10.250
10.333	353.233	-10.256
10.335	353.313	-10.261
10.337	353.394	-10.267
10.339	353.479	-10.273
10.341	353.565	-10.279
10.344	353.644	-10.285
10.346	353.733	-10.290
10.348	353.815	-10.296
10.350	353.895	-10.301
10.352	353.979	-10.307
10.355	354.063	-10.312
10.357	354.146	-10.318
10.359	354.227	-10.323
10.361	354.311	-10.328
10.363	354.399	-10.333
10.366	354.477	-10.339
10.368	354.562	-10.344
10.370	354.645	-10.350
10.372	354.727	-10.355
10.374	354.812	-10.360
10.376	354.896	-10.365
10.379	354.977	-10.370
10.381	355.061	-10.374
10.383	355.145	-10.379
10.385	355.227	-10.383
10.387	355.311	-10.388
10.390	355.391	-10.392
10.392	355.473	-10.396
10.394	355.559	-10.400
10.396	355.642	-10.404
10.398	355.727	-10.409
10.401	355.809	-10.413
10.403	355.895	-10.417
10.405	355.977	-10.421
10.407	356.061	-10.425
10.409	356.145	-10.429
10.412	356.227	-10.434
10.414	356.312	-10.438
10.416	356.394	-10.442
10.418	356.475	-10.446
10.420	356.559	-10.450
10.423	356.645	-10.454
10.425	356.728	-10.458
10.427	356.811	-10.461
10.429	356.897	-10.465
10.431	356.981	-10.469
10.433	357.061	-10.472
10.436	357.142	-10.476
10.438	357.225	-10.480
10.440	357.307	-10.483
10.442	357.393	-10.486
10.444	357.477	-10.490
10.447	357.565	-10.493
10.449	357.647	-10.497
10.451	357.729	-10.501
10.453	357.813	-10.504
10.455	357.890	-10.508
10.458	357.981	-10.512
10.460	358.061	-10.515
10.462	358.145	-10.518
10.464	358.226	-10.522
10.466	358.312	-10.525
10.469	358.394	-10.528
10.471	358.479	-10.532
10.473	358.563	-10.534
10.475	358.647	-10.537
10.477	358.726	-10.539
10.479	358.811	-10.542
10.482	358.896	-10.544
10.484	358.982	-10.547
10.486	359.061	-10.550
10.488	359.141	-10.552
10.490	359.230	-10.554
10.493	359.311	-10.557
10.495	359.397	-10.560
10.497	359.481	-10.563
10.499	359.563	-10.565
10.501	359.647	-10.568
10.504	359.732	-10.571
10.506	359.815	-10.574
10.508	359.899	-10.577
10.510	359.982	-10.579
10.512	360.067	-10.581
10.515	360.146	-10.584
10.517	360.228	-10.586
10.519	360.315	-10.589
10.521	360.400	-10.591
10.523	360.483	-10.593
10.526	360.560	-10.596
10.528	360.647	-10.598
10.530	360.730	-10.600
10.532	360.815	-10.603
10.534	360.893	-10.606
10.536	360.980	-10.608
10.539	361.067	-10.610
10.541	361.150	-10.613
10.543	361.231	-10.615
10.545	361.313	-10.618
10.547	361.398	-10.620
10.550	361.481	-10.622
10.552	361.562	-10.625
10.554	361.646	-10.627
10.556	361.729	-10.628
10.558	361.814	-10.630
10.561	361.900	-10.632
10.563	361.981	-10.634
10.565	362.065	-10.636
10.567	362.152	-10.637
10.569	362.229	-10.638
10.572	362.315	-10.640
10.574	362.399	-10.641
10.576	362.482	-10.643
10.578	362.565	-10.645
10.580	362.650	-10.647
10.583	362.731	-10.648
10.585	362.817	-10.650
10.587	362.898	-10.651
10.589	362.983	-10.653
10.591	363.065	-10.655
10.593	363.150	-10.657
10.596	363.236	-10.659
10.598	363.315	-10.661
10.600	363.401	-10.663
10.602	363.484	-10.664
10.604	363.567	-10.666
10.607	363.652	-10.668
10.609	363.730	-10.670
10.611	363.812	-10.671
10.613	363.898	-10.672
10.615	363.984	-10.673
10.618	364.067	-10.675
10.620	364.148	-10.676
10.622	364.232	-10.677
10.624	364.312	-10.678
10.626	364.399	-10.680
10.629	364.482	-10.681
10.631	364.570	-10.682
10.633	364.651	-10.683
10.635	364.736	-10.685
10.637	364.820	-10.686
10.639	364.901	-10.687
10.642	364.986	-10.689
10.644	365.071	-10.690
10.646	365.157	-10.691
10.648	365.237	-10.692
10.650	365.321	-10.693
10.653	365.404	-10.694
10.655	365.487	-10.695
10.657	365.571	-10.695
10.659	365.650	-10.696
10.661	365.736	-10.696
10.664	365.820	-10.697
10.666	365.903	-10.698
10.668	365.989	-10.699
10.670	366.073	-10.700
10.672	366.154	-10.701
10.675	366.238	-10.702
10.677	366.320	-10.703
10.679	366.406	-10.704
10.681	366.490	-10.705
10.683	366.570	-10.706
10.686	366.655	-10.707
10.688	366.742	-10.708
10.690	366.824	-10.708
10.692	366.905	-10.709
10.694	366.988	-10.709
10.696	367.074	-10.710
10.699	367.157	-10.710
10.701	367.240	-10.709
10.703	367.322	-10.710
10.705	367.406	-10.710
10.707	367.493	-10.710
10.710	367.575	-10.710
10.712	367.658	-10.710
10.714	367.743	-10.711
10.716	367.825	-10.712
10.718	367.909	-10.712
10.721	367.993	-10.713
10.723	368.075	-10.714
10.725	368.159	-10.714
10.727	368.241	-10.715
10.729	368.326	-10.715
10.732	368.410	-10.715
10.734	368.493	-10.716
10.736	368.581	-10.716
10.738	368.660	-10.716
10.740	368.741	-10.716
10.742	368.828	-10.716
10.745	368.911	-10.717
10.747	368.995	-10.717
10.749	369.077	-10.717
10.751	369.161	-10.717
10.753	369.244	-10.719
10.756	369.328	-10.719
10.758	369.414	-10.719
10.760	369.497	-10.720
10.762	369.581	-10.720
10.764	369.663	-10.720
10.767	369.747	-10.720
10.769	369.830	-10.721
10.771	369.918	-10.721
10.773	369.998	-10.721
10.775	370.080	-10.721
10.778	370.164	-10.721
10.780	370.245	-10.721
10.782	370.331	-10.721
10.784	370.414	-10.721
10.786	370.497	-10.721
10.789	370.580	-10.721
10.791	370.667	-10.721
10.793	370.750	-10.721
10.795	370.832	-10.721
10.797	370.915	-10.721
10.799	370.998	-10.721
10.802	371.083	-10.721
10.804	371.167	-10.721
10.806	371.251	-10.721
10.808	371.334	-10.720
10.810	371.417	-10.720
10.813	371.506	-10.720
10.815	371.587	-10.719
10.817	371.671	-10.719
10.819	371.756	-10.719
10.821	371.837	-10.719
10.824	371.921	-10.719
10.826	372.001	-10.719
10.828	372.083	-10.718
10.830	372.169	-10.718
10.832	372.254	-10.717
10.835	372.339	-10.716
10.837	372.419	-10.716
10.839	372.503	-10.715
10.841	372.586	-10.714
10.843	372.675	-10.713
10.846	372.755	-10.712
10.848	372.838	-10.711
10.850	372.920	-10.711
10.852	373.004	-10.710
10.854	373.087	-10.710
10.856	373.173	-10.709
10.859	373.258	-10.708
10.861	373.338	-10.707
10.863	373.423	-10.706
10.865	373.507	-10.705
10.867	373.589	-10.703
10.870	373.674	-10.702
10.872	373.758	-10.700
10.874	373.844	-10.698
10.876	373.914	-10.697
10.878	374.001	-10.696
10.881	374.090	-10.694
10.883	374.175	-10.693
10.885	374.257	-10.691
10.887	374.344	-10.689
10.889	374.426	-10.688
10.892	374.510	-10.685
10.894	374.598	-10.684
10.896	374.678	-10.682
10.898	374.762	-10.680
10.900	374.844	-10.678
10.902	374.928	-10.677
10.905	375.012	-10.675
10.907	375.100	-10.673
10.909	375.182	-10.671
10.911	375.263	-10.669
10.913	375.346	-10.668
10.916	375.433	-10.666
10.918	375.515	-10.664
10.920	375.601	-10.662
10.922	375.683	-10.661
10.924	375.764	-10.659
10.927	375.849	-10.657
10.929	375.932	-10.656
10.931	376.013	-10.654
10.933	376.098	-10.652
10.935	376.185	-10.649
10.938	376.269	-10.647
10.940	376.347	-10.645
10.942	376.436	-10.643
10.944	376.515	-10.640
10.946	376.605	-10.637
10.949	376.689	-10.635
10.951	376.769	-10.632
10.953	376.855	-10.629
10.955	376.936	-10.627
10.957	377.021	-10.624
10.959	377.102	-10.621
10.962	377.185	-10.618
10.964	377.273	-10.615
10.966	377.356	-10.611
10.968	377.439	-10.608
10.970	377.521	-10.605
10.973	377.609	-10.602
10.975	377.691	-10.599
10.977	377.773	-10.595
10.979	377.859	-10.592
10.981	377.942	-10.589
10.984	378.024	-10.586
10.986	378.111	-10.583
10.988	378.191	-10.580
10.990	378.277	-10.578
10.992	378.358	-10.574
10.995	378.447	-10.571
10.997	378.530	-10.568
10.999	378.610	-10.564
11.001	378.693	-10.560
11.003	378.778	-10.557
11.005	378.863	-10.554
11.008	378.946	-10.550
11.010	379.030	-10.546
11.012	379.113	-10.542
11.014	379.196	-10.539
11.016	379.281	-10.535
11.019	379.366	-10.532
11.021	379.450	-10.528
11.023	379.536	-10.524
11.025	379.618	-10.520
11.027	379.701	-10.516
11.030	379.789	-10.512
11.032	379.869	-10.508
11.034	379.949	-10.504
11.036	380.035	-10.499
11.038	380.119	-10.495
11.041	380.209	-10.491
11.043	380.291	-10.487
11.045	380.370	-10.483
11.047	380.457	-10.478
11.049	380.539	-10.473
11.052	380.623	-10.469
11.054	380.705	-10.464
11.056	380.791	-10.459
11.058	380.873	-10.454
11.060	380.959	-10.449
11.062	381.043	-10.444
11.065	381.126	-10.439
11.067	381.211	-10.434
11.069	381.293	-10.429
11.071	381.376	-10.424
11.073	381.459	-10.419
11.076	381.546	-10.413
11.078	381.632	-10.407
11.080	381.712	-10.402
11.082	381.796	-10.397
11.084	381.882	-10.391
11.087	381.966	-10.385
11.089	382.049	-10.380
11.091	382.132	-10.373
11.093	382.214	-10.367
11.095	382.301	-10.360
11.098	382.380	-10.354
11.100	382.467	-10.348
11.102	382.551	-10.342
11.104	382.635	-10.335
11.106	382.721	-10.329
11.109	382.805	-10.323
11.111	382.890	-10.317
11.113	382.972	-10.310
11.115	383.057	-10.304
11.117	383.138	-10.298
11.119	383.221	-10.292
11.122	383.305	-10.285
11.124	383.390	-10.278
11.126	383.473	-10.271
11.128	383.557	-10.264
11.130	383.642	-10.256
11.133	383.723	-10.249
11.135	383.811	-10.241
11.137	383.894	-10.233
11.139	383.977	-10.226
11.141	384.061	-10.218
11.144	384.146	-10.210
11.146	384.233	-10.201
11.148	384.314	-10.193
11.150	384.398	-10.185
11.152	384.482	-10.176
11.155	384.568	-10.168
11.157	384.650	-10.159
11.159	384.735	-10.151
11.161	384.816	-10.142
11.163	384.907	-10.133
11.165	384.987	-10.123
11.168	385.073	-10.114
11.170	385.156	-10.105
11.172	385.244	-10.096
11.174	385.326	-10.087
11.176	385.409	-10.078
11.179	385.492	-10.068
11.181	385.578	-10.058
11.183	385.658	-10.048
11.185	385.747	-10.038
11.187	385.829	-10.027
11.190	385.913	-10.017
11.192	385.998	-10.006
11.194	386.082	-9.995
11.196	386.166	-9.984
11.198	386.250	-9.973
11.201	386.332	-9.961
11.203	386.420	-9.950
11.205	386.499	-9.938
11.207	386.586	-9.926
11.209	386.666	-9.914
11.212	386.752	-9.902
11.214	386.836	-9.890
11.216	386.921	-9.878
11.218	387.006	-9.866
11.220	387.091	-9.853
11.222	387.176	-9.841
11.225	387.259	-9.828
11.227	387.343	-9.817
11.229	387.426	-9.805
11.231	387.513	-9.793
11.233	387.597	-9.781
11.236	387.680	-9.769
11.238	387.765	-9.757
11.240	387.848	-9.744
11.242	387.932	-9.732
11.244	388.017	-9.720
11.247	388.100	-9.707
11.249	388.185	-9.694
11.251	388.272	-9.682
11.253	388.354	-9.669
11.255	388.439	-9.657
11.258	388.521	-9.644
11.260	388.607	-9.632
11.262	388.689	-9.619
11.264	388.776	-9.605
11.266	388.859	-9.592
11.268	388.944	-9.579
11.271	389.032	-9.565
11.273	389.111	-9.551
11.275	389.199	-9.537
11.277	389.280	-9.523
11.279	389.368	-9.508
11.282	389.456	-9.494
11.284	389.535	-9.479
11.286	389.620	-9.465
11.288	389.703	-9.450
11.290	389.786	-9.434
11.293	389.870	-9.420
11.295	389.954	-9.404
11.297	390.039	-9.389
11.299	390.125	-9.374
11.301	390.209	-9.359
11.304	390.295	-9.343
11.306	390.377	-9.328
11.308	390.465	-9.312
11.310	390.549	-9.296
11.312	390.633	-9.280
11.315	390.717	-9.264
11.317	390.802	-9.248
11.319	390.889	-9.232
11.321	390.971	-9.216
11.323	391.054	-9.199
11.325	391.139	-9.183
11.328	391.222	-9.166
11.330	391.306	-9.149
11.332	391.392	-9.133
11.334	391.476	-9.115
11.336	391.562	-9.098
11.339	391.647	-9.080
11.341	391.732	-9.063
11.343	391.819	-9.046
11.345	391.902	-9.028
11.347	391.987	-9.010
11.350	392.070	-8.992
11.352	392.153	-8.975
11.354	392.238	-8.956
11.356	392.328	-8.938
11.358	392.409	-8.920
11.361	392.497	-8.902
11.363	392.578	-8.884
11.365	392.663	-8.866
11.367	392.745	-8.847
11.369	392.830	-8.829
11.372	392.917	-8.810
11.374	393.000	-8.791
11.376	393.086	-8.773
11.378	393.173	-8.754
11.380	393.255	-8.735
11.382	393.340	-8.716
11.385	393.425	-8.697
11.387	393.510	-8.678
11.389	393.589	-8.658
11.391	393.676	-8.638
11.393	393.758	-8.619
11.396	393.845	-8.599
11.398	393.935	-8.579
11.400	394.022	-8.559
11.402	394.104	-8.539
11.404	394.189	-8.519
11.407	394.278	-8.499
11.409	394.362	-8.478
11.411	394.443	-8.457
11.413	394.530	-8.437
11.415	394.613	-8.416
11.418	394.700	-8.395
11.420	394.787	-8.373
11.422	394.868	-8.352
11.424	394.952	-8.331
11.426	395.040	-8.310
11.428	395.123	-8.288
11.431	395.203	-8.267
11.433	395.290	-8.245
11.435	395.378	-8.223
11.437	395.464	-8.201
11.439	395.548	-8.179
11.442	395.631	-8.157
11.444	395.718	-8.135
11.446	395.804	-8.112
11.448	395.886	-8.089
11.450	395.974	-8.067
11.453	396.055	-8.044
11.455	396.141	-8.022
11.457	396.227	-8.000
11.459	396.309	-7.978
11.461	396.397	-7.955
11.464	396.482	-7.932
11.466	396.567	-7.910
11.468	396.650	-7.887
11.470	396.735	-7.865
11.472	396.820	-7.842
11.475	396.901	-7.819
11.477	396.986	-7.796
11.479	397.074	-7.773
11.481	397.159	-7.751
11.483	397.244	-7.728
11.485	397.328	-7.706
11.488	397.412	-7.683
11.490	397.495	-7.660
11.492	397.580	-7.637
11.494	397.662	-7.614
11.496	397.751	-7.592
11.499	397.835	-7.569
11.501	397.922	-7.546
11.503	398.008	-7.523
11.505	398.089	-7.500
11.507	398.177	-7.477
11.510	398.262	-7.454
11.512	398.346	-7.430
11.514	398.428	-7.407
11.516	398.515	-7.383
11.518	398.598	-7.358
11.521	398.687	-7.334
11.523	398.772	-7.310
11.525	398.853	-7.286
11.527	398.937	-7.261
11.529	399.028	-7.237
11.531	399.110	-7.213
11.534	399.194	-7.190
11.536	399.277	-7.166
11.538	399.365	-7.142
11.540	399.456	-7.118
11.542	399.534	-7.094
11.545	399.625	-7.071
11.547	399.711	-7.047
11.549	399.794	-7.023
11.551	399.880	-7.000
11.553	399.966	-6.976
11.556	400.046	-6.952
11.558	400.132	-6.929
11.560	400.215	-6.906
11.562	400.300	-6.883
11.564	400.386	-6.859
11.567	400.472	-6.836
11.569	400.559	-6.813
11.571	400.638	-6.790
11.573	400.725	-6.767
11.575	400.808	-6.745
11.578	400.894	-6.722
11.580	400.978	-6.698
11.582	401.062	-6.674
11.584	401.152	-6.651
11.586	401.232	-6.628
11.588	401.319	-6.605
11.591	401.401	-6.581
11.593	401.488	-6.557
11.595	401.572	-6.533
11.597	401.657	-6.510
11.599	401.742	-6.486
11.602	401.825	-6.464
11.604	401.908	-6.441
11.606	401.998	-6.417
11.608	402.079	-6.394
11.610	402.168	-6.371
11.613	402.252	-6.349
11.615	402.337	-6.326
11.617	402.418	-6.303
11.619	402.505	-6.281
11.621	402.589	-6.258
11.624	402.675	-6.235
11.626	402.755	-6.213
11.628	402.844	-6.191
11.630	402.927	-6.169
11.632	403.013	-6.147
11.635	403.095	-6.125
11.637	403.179	-6.103
11.639	403.266	-6.081
11.641	403.351	-6.059
11.643	403.437	-6.037
11.645	403.522	-6.015
11.648	403.601	-5.993
11.650	403.685	-5.971
11.652	403.772	-5.949
11.654	403.857	-5.927
11.656	403.942	-5.905
11.659	404.027	-5.884
11.661	404.112	-5.863
11.663	404.198	-5.842
11.665	404.283	-5.821
11.667	404.367	-5.800
11.670	404.450	-5.779
11.672	404.536	-5.758
11.674	404.625	-5.738
11.676	404.704	-5.717
11.678	404.791	-5.696
11.681	404.875	-5.674
11.683	404.961	-5.653
11.685	405.045	-5.632
11.687	405.128	-5.611
11.689	405.213	-5.589
11.691	405.297	-5.567
11.694	405.381	-5.545
11.696	405.464	-5.524
11.698	405.551	-5.503
11.700	405.638	-5.482
11.702	405.722	-5.460
11.705	405.806	-5.439
11.707	405.886	-5.418
11.709	405.975	-5.397
11.711	406.062	-5.376
11.713	406.143	-5.356
11.716	406.228	-5.336
11.718	406.313	-5.316
11.720	406.395	-5.295
11.722	406.484	-5.274
11.724	406.569	-5.254
11.727	406.651	-5.233
11.729	406.734	-5.212
11.731	406.821	-5.192
11.733	406.904	-5.172
11.735	406.989	-5.151
11.738	407.077	-5.130
11.740	407.159	-5.110
11.742	407.247	-5.089
11.744	407.331	-5.069
11.746	407.412	-5.049
11.748	407.498	-5.029
11.751	407.579	-5.009
11.753	407.665	-4.989
11.755	407.749	-4.969
11.757	407.832	-4.948
11.759	407.919	-4.928
11.762	408.000	-4.908
11.764	408.086	-4.888
11.766	408.171	-4.868
11.768	408.254	-4.847
11.770	408.340	-4.826
11.773	408.424	-4.806
11.775	408.509	-4.785
11.777	408.592	-4.765
11.779	408.678	-4.745
11.781	408.761	-4.725
11.784	408.846	-4.705
11.786	408.929	-4.685
11.788	409.016	-4.665
11.790	409.102	-4.645
11.792	409.183	-4.626
11.794	409.273	-4.606
11.797	409.352	-4.586
11.799	409.439	-4.566
11.801	409.522	-4.547
11.803	409.608	-4.528
11.805	409.692	-4.508
11.808	409.777	-4.489
11.810	409.861	-4.469
11.812	409.946	-4.450
11.814	410.032	-4.431
11.816	410.116	-4.411
11.819	410.202	-4.392
11.821	410.285	-4.373
11.823	410.370	-4.353
11.825	410.457	-4.333
11.827	410.540	-4.314
11.830	410.622	-4.295
11.832	410.709	-4.276
11.834	410.790	-4.256
11.836	410.877	-4.237
11.838	410.963	-4.218
11.841	411.047	-4.199
11.843	411.130	-4.180
11.845	411.215	-4.161
11.847	411.299	-4.143
11.849	411.383	-4.124
11.851	411.470	-4.105
11.854	411.554	-4.086
11.856	411.639	-4.068
11.858	411.723	-4.050
11.860	411.807	-4.032
11.862	411.888	-4.014
11.865	411.975	-3.995
11.867	412.060	-3.977
11.869	412.143	-3.958
11.871	412.223	-3.940
11.873	412.314	-3.921
11.876	412.395	-3.902
11.878	412.482	-3.883
11.880	412.564	-3.864
11.882	412.650	-3.844
11.884	412.733	-3.826
11.887	412.819	-3.807
11.889	412.904	-3.788
11.891	412.988	-3.769
11.893	413.069	-3.751
11.895	413.154	-3.732
11.898	413.241	-3.714
11.900	413.322	-3.695
11.902	413.411	-3.677
11.904	413.493	-3.658
11.906	413.581	-3.640
11.908	413.663	-3.621
11.911	413.746	-3.603
11.913	413.832	-3.584
11.915	413.916	-3.566
11.917	414.003	-3.547
11.919	414.086	-3.528
11.922	414.169	-3.510
11.924	414.255	-3.492
11.926	414.339	-3.474
11.928	414.422	-3.456
11.930	414.504	-3.437
11.933	414.589	-3.419
11.935	414.672	-3.401
11.937	414.760	-3.382
11.939	414.847	-3.363
11.941	414.927	-3.345
11.944	415.012	-3.326
11.946	415.098	-3.308
11.948	415.186	-3.289
11.950	415.269	-3.270
11.952	415.353	-3.252
11.954	415.436	-3.233
11.957	415.521	-3.215
11.959	415.605	-3.197
11.961	415.687	-3.178
11.963	415.773	-3.159
11.965	415.859	-3.141
11.968	415.942	-3.122
11.970	416.027	-3.104
11.972	416.110	-3.085
11.974	416.196	-3.066
11.976	416.283	-3.046
11.979	416.363	-3.027
11.981	416.450	-3.008
11.983	416.534	-2.989
11.985	416.617	-2.970
11.987	416.698	-2.951
11.990	416.780	-2.932
11.992	416.870	-2.912
11.994	416.952	-2.893
11.996	417.036	-2.874
11.998	417.123	-2.854
12.001	417.206	-2.834
12.003	417.289	-2.815
12.005	417.377	-2.796
12.007	417.457	-2.777
12.009	417.547	-2.757
12.011	417.629	-2.738
12.014	417.712	-2.719
12.016	417.799	-2.700
12.018	417.881	-2.681
12.020	417.967	-2.662
12.022	418.052	-2.643
12.025	418.139	-2.624
12.027	418.223	-2.604
12.029	418.305	-2.584
12.031	418.391	-2.563
12.033	418.474	-2.543
12.036	418.561	-2.523
12.038	418.641	-2.503
12.040	418.729	-2.483
12.042	418.810	-2.462
12.044	418.897	-2.442
12.047	418.983	-2.422
12.049	419.068	-2.402
12.051	419.149	-2.383
12.053	419.237	-2.363
12.055	419.324	-2.343
12.057	419.405	-2.323
12.060	419.492	-2.303
12.062	419.573	-2.283
12.064	419.659	-2.263
12.066	419.743	-2.244
12.068	419.828	-2.223
12.071	419.911	-2.202
12.073	419.998	-2.182
12.075	420.079	-2.161
12.077	420.164	-2.141
12.079	420.250	-2.121
12.082	420.334	-2.100
12.084	420.417	-2.080
12.086	420.500	-2.059
12.088	420.584	-2.039
12.090	420.674	-2.018
12.093	420.757	-1.997
12.095	420.842	-1.976
12.097	420.927	-1.956
12.099	421.017	-1.935
12.101	421.096	-1.914
12.104	421.179	-1.893
12.106	421.263	-1.872
12.108	421.353	-1.851
12.110	421.432	-1.829
12.112	421.517	-1.809
12.114	421.605	-1.789
12.117	421.686	-1.768
12.119	421.769	-1.746
12.121	421.852	-1.726
12.123	421.939	-1.705
12.125	422.023	-1.683
12.128	422.109	-1.662
12.130	422.193	-1.641
12.132	422.279	-1.620
12.134	422.364	-1.598
12.136	422.448	-1.577
12.139	422.534	-1.555
12.141	422.614	-1.534
12.143	422.700	-1.511
12.145	422.788	-1.489
12.147	422.875	-1.467
12.150	422.959	-1.445
12.152	423.041	-1.423
12.154	423.128	-1.401
12.156	423.209	-1.379
12.158	423.299	-1.357
12.161	423.383	-1.335
12.163	423.467	-1.313
12.165	423.555	-1.292
12.167	423.637	-1.270
12.169	423.718	-1.249
12.171	423.809	-1.228
12.174	423.891	-1.206
12.176	423.976	-1.184
12.178	424.056	-1.162
12.180	424.147	-1.140
12.182	424.229	-1.118
12.185	424.315	-1.095
12.187	424.400	-1.073
12.189	424.484	-1.050
12.191	424.568	-1.027
12.193	424.650	-1.004
12.196	424.737	-0.982
12.198	424.820	-0.959
12.200	424.905	-0.936
12.202	424.986	-0.914
12.204	425.070	-0.891
12.207	425.158	-0.869
12.209	425.242	-0.847
12.211	425.331	-0.824
12.213	425.411	-0.801
12.215	425.498	-0.779
12.217	425.580	-0.756
12.220	425.665	-0.733
12.222	425.748	-0.710
12.224	425.835	-0.686
12.226	425.919	-0.663
12.228	426.005	-0.640
12.231	426.090	-0.617
12.233	426.175	-0.594
12.235	426.261	-0.570
12.237	426.346	-0.546
12.239	426.430	-0.523
12.242	426.515	-0.500
12.244	426.601	-0.477
12.246	426.686	-0.453
12.248	426.769	-0.430
12.250	426.854	-0.407
12.253	426.938	-0.383
12.255	427.024	-0.360
12.257	427.106	-0.336
12.259	427.189	-0.313
12.261	427.276	-0.289
12.264	427.361	-0.264
12.266	427.444	-0.240
12.268	427.530	-0.216
12.270	427.614	-0.191
12.272	427.703	-0.168
12.274	427.789	-0.144
12.277	427.874	-0.120
12.279	427.954	-0.097
12.281	428.042	-0.073
12.283	428.128	-0.050
12.285	428.213	-0.026
12.288	428.293	-0.003
12.290	428.379	0.021
12.292	428.459	0.044
12.294	428.549	0.068
12.296	428.635	0.093
12.299	428.716	0.117
12.301	428.801	0.142
12.303	428.886	0.165
12.305	428.974	0.189
12.307	429.055	0.214
12.310	429.139	0.238
12.312	429.229	0.262
12.314	429.313	0.286
12.316	429.395	0.310
12.318	429.481	0.334
12.320	429.567	0.358
12.323	429.653	0.382
12.325	429.735	0.407
12.327	429.815	0.432
12.329	429.902	0.457
12.331	429.989	0.482
12.334	430.075	0.507
12.336	430.159	0.533
12.338	430.242	0.559
12.340	430.327	0.584
12.342	430.412	0.610
12.345	430.497	0.635
12.347	430.580	0.661
12.349	430.667	0.686
12.351	430.751	0.712
12.353	430.838	0.737
12.356	430.923	0.763
12.358	431.006	0.788
12.360	431.094	0.813
12.362	431.177	0.839
12.364	431.260	0.865
12.367	431.346	0.890
12.369	431.431	0.915
12.371	431.516	0.941
12.373	431.602	0.966
12.375	431.683	0.992
12.377	431.769	1.018
12.380	431.860	1.044
12.382	431.940	1.070
12.384	432.024	1.096
12.386	432.106	1.122
12.388	432.193	1.147
12.391	432.279	1.173
12.393	432.359	1.199
12.395	432.444	1.225
12.397	432.534	1.251
12.399	432.617	1.276
12.402	432.703	1.302
12.404	432.783	1.328
12.406	432.870	1.353
12.408	432.954	1.379
12.410	433.037	1.405
12.413	433.124	1.431
12.415	433.210	1.457
12.417	433.295	1.483
12.419	433.378	1.509
12.421	433.462	1.536
12.424	433.551	1.562
12.426	433.629	1.588
12.428	433.713	1.614
12.430	433.803	1.640
12.432	433.888	1.667
12.434	433.971	1.694
12.437	434.058	1.720
12.439	434.144	1.746
12.441	434.228	1.773
12.443	434.311	1.800
12.445	434.394	1.826
12.448	434.481	1.853
12.450	434.565	1.880
12.452	434.650	1.906
12.454	434.737	1.932
12.456	434.823	1.958
12.459	434.903	1.985
12.461	434.986	2.011
12.463	435.075	2.037
12.465	435.158	2.062
12.467	435.242	2.088
12.470	435.328	2.114
12.472	435.412	2.140
12.474	435.496	2.166
12.476	435.584	2.192
12.478	435.667	2.218
12.480	435.754	2.244
12.483	435.838	2.269
12.485	435.923	2.296
12.487	436.007	2.322
12.489	436.092	2.348
12.491	436.179	2.374
12.494	436.261	2.400
12.496	436.347	2.425
12.498	436.432	2.451
12.500	436.516	2.477
12.502	436.599	2.503
12.505	436.683	2.528
12.507	436.771	2.554
12.509	436.854	2.580
12.511	436.939	2.605
12.513	437.024	2.631
12.516	437.107	2.656
12.518	437.195	2.682
12.520	437.278	2.707
12.522	437.362	2.732
12.524	437.445	2.757
12.527	437.531	2.782
12.529	437.614	2.807
12.531	437.698	2.831
12.533	437.783	2.855
12.535	437.871	2.880
12.537	437.952	2.904
12.540	438.037	2.928
12.542	438.122	2.952
12.544	438.207	2.976
12.546	438.292	3.000
12.548	438.380	3.024
12.551	438.463	3.048
12.553	438.550	3.072
12.555	438.635	3.096
12.557	438.715	3.119
12.559	438.800	3.143
12.562	438.890	3.166
12.564	438.972	3.190
12.566	439.053	3.213
12.568	439.134	3.235
12.570	439.223	3.257
12.573	439.306	3.280
12.575	439.390	3.301
12.577	439.475	3.323
12.579	439.562	3.345
12.581	439.651	3.367
12.583	439.729	3.389
12.586	439.812	3.410
12.588	439.901	3.431
12.590	439.982	3.452
12.592	440.063	3.473
12.594	440.152	3.495
12.597	440.236	3.516
12.599	440.325	3.538
12.601	440.407	3.558
12.603	440.493	3.578
12.605	440.576	3.598
12.608	440.657	3.618
12.610	440.746	3.639
12.612	440.829	3.658
12.614	440.916	3.677
12.616	440.996	3.695
12.619	441.086	3.714
12.621	441.168	3.732
12.623	441.251	3.751
12.625	441.334	3.769
12.627	441.420	3.788
12.630	441.505	3.806
12.632	441.589	3.823
12.634	441.671	3.840
12.636	441.757	3.857
12.638	441.838	3.873
12.640	441.923	3.890
12.643	442.008	3.906
12.645	442.094	3.922
12.647	442.179	3.938
12.649	442.260	3.953
12.651	442.344	3.968
12.654	442.431	3.982
12.656	442.513	3.997
12.658	442.595	4.011
12.660	442.683	4.025
12.662	442.767	4.038
12.665	442.848	4.050
12.667	442.934	4.063
12.669	443.017	4.075
12.671	443.097	4.087
12.673	443.183	4.099
12.676	443.271	4.111
12.678	443.355	4.123
12.680	443.431	4.134
12.682	443.520	4.145
12.684	443.609	4.156
12.687	443.691	4.166
12.689	443.774	4.176
12.691	443.858	4.186
12.693	443.942	4.195
12.695	444.022	4.204
12.697	444.108	4.212
12.700	444.192	4.220
12.702	444.276	4.228
12.704	444.362	4.235
12.706	444.442	4.242
12.708	444.527	4.248
12.711	444.614	4.254
12.713	444.695	4.260
12.715	444.778	4.265
12.717	444.862	4.270
12.719	444.946	4.275
12.722	445.026	4.278
12.724	445.111	4.282
12.726	445.197	4.287
12.728	445.280	4.290
12.730	445.362	4.292
12.733	445.448	4.294
12.735	445.527	4.296
12.737	445.613	4.297
12.739	445.694	4.298
12.741	445.775	4.298
12.743	445.865	4.297
12.746	445.944	4.296
12.748	446.027	4.294
12.750	446.113	4.292
12.752	446.196	4.290
12.754	446.277	4.287
12.757	446.361	4.284
12.759	446.443	4.280
12.761	446.528	4.276
12.763	446.612	4.272
12.765	446.696	4.266
12.768	446.777	4.261
12.770	446.854	4.254
12.772	446.944	4.248
12.774	447.025	4.240
12.776	447.107	4.232
12.779	447.190	4.224
12.781	447.275	4.216
12.783	447.355	4.207
12.785	447.439	4.198
12.787	447.522	4.188
12.790	447.604	4.178
12.792	447.686	4.168
12.794	447.767	4.157
12.796	447.851	4.145
12.798	447.933	4.133
12.800	448.017	4.121
12.803	448.101	4.108
12.805	448.182	4.094
12.807	448.263	4.080
12.809	448.347	4.065
12.811	448.429	4.049
12.814	448.510	4.033
12.816	448.594	4.017
12.818	448.678	4.000
12.820	448.757	3.982
12.822	448.841	3.963
12.825	448.921	3.945
12.827	449.006	3.926
12.829	449.090	3.906
12.831	449.170	3.885
12.833	449.255	3.865
12.836	449.335	3.844
12.838	449.415	3.822
12.840	449.503	3.800
12.842	449.582	3.778
12.844	449.664	3.756
12.846	449.746	3.732
12.849	449.829	3.709
12.851	449.912	3.685
12.853	449.995	3.660
12.855	450.076	3.635
12.857	450.158	3.608
12.860	450.238	3.581
12.862	450.318	3.555
12.864	450.401	3.527
12.866	450.484	3.498
12.868	450.566	3.469
12.871	450.646	3.440
12.873	450.731	3.410
12.875	450.810	3.380
12.877	450.894	3.350
12.879	450.975	3.319
12.882	451.054	3.288
12.884	451.137	3.257
12.886	451.223	3.225
12.888	451.303	3.192
12.890	451.382	3.159
12.893	451.465	3.125
12.895	451.545	3.091
12.897	451.626	3.057
12.899	451.708	3.022
12.901	451.792	2.986
12.903	451.872	2.950
12.906	451.953	2.914
12.908	452.031	2.877
12.910	452.117	2.841
12.912	452.195	2.804
12.914	452.277	2.766
12.917	452.358	2.728
12.919	452.439	2.690
12.921	452.519	2.650
12.923	452.604	2.611
12.925	452.686	2.571
12.928	452.768	2.531
12.930	452.847	2.489
12.932	452.927	2.447
12.934	453.012	2.405
12.936	453.090	2.363
12.939	453.171	2.320
12.941	453.253	2.276
12.943	453.335	2.232
12.945	453.415	2.187
12.947	453.497	2.143
12.950	453.577	2.098
12.952	453.657	2.053
12.954	453.739	2.007
12.956	453.821	1.961
12.958	453.902	1.915
12.960	453.983	1.868
12.963	454.062	1.822
12.965	454.143	1.776
12.967	454.225	1.729
12.969	454.308	1.682
12.971	454.384	1.634
12.974	454.466	1.585
12.976	454.547	1.536
12.978	454.627	1.487
12.980	454.711	1.437
12.982	454.787	1.387
12.985	454.870	1.336
12.987	454.949	1.285
12.989	455.031	1.234
12.991	455.113	1.183
12.993	455.191	1.131
12.996	455.272	1.079
12.998	455.352	1.026
13.000	455.434	0.974
13.002	455.516	0.921
13.004	455.598	0.868
13.006	455.676	0.814
13.009	455.755	0.760
13.011	455.836	0.705
13.013	455.916	0.651
13.015	455.997	0.596
13.017	456.080	0.541
13.020	456.155	0.485
13.022	456.243	0.429
13.024	456.319	0.372
13.026	456.398	0.315
13.028	456.478	0.259
13.031	456.560	0.202
13.033	456.641	0.145
13.035	456.721	0.087
13.037	456.801	0.028
13.039	456.884	-0.030
13.042	456.962	-0.089
13.044	457.040	-0.147
13.046	457.123	-0.206
13.048	457.207	-0.265
13.050	457.281	-0.325
13.053	457.363	-0.384
13.055	457.444	-0.444
13.057	457.523	-0.503
13.059	457.604	-0.563
13.061	457.686	-0.623
13.063	457.767	-0.683
13.066	457.845	-0.743
13.068	457.927	-0.803
13.070	458.006	-0.863
13.072	458.089	-0.924
13.074	458.165	-0.985
13.077	458.248	-1.046
13.079	458.328	-1.108
13.081	458.407	-1.169
13.083	458.487	-1.232
13.085	458.566	-1.294
13.088	458.649	-1.356
13.090	458.730	-1.418
13.092	458.808	-1.480
13.094	458.891	-1.543
13.096	458.970	-1.606
13.099	459.053	-1.669
13.101	459.128	-1.732
13.103	459.212	-1.794
13.105	459.293	-1.856
13.107	459.373	-1.919
13.109	459.453	-1.983
13.112	459.534	-2.047
13.114	459.612	-2.110
13.116	459.692	-2.173
13.118	459.770	-2.236
13.120	459.852	-2.299
13.123	459.932	-2.362
13.125	460.011	-2.425
13.127	460.093	-2.489
13.129	460.169	-2.553
13.131	460.253	-2.617
13.134	460.336	-2.681
13.136	460.413	-2.745
13.138	460.495	-2.809
13.140	460.576	-2.873
13.142	460.658	-2.937
13.145	460.734	-3.002
13.147	460.815	-3.067
13.149	460.899	-3.131
13.151	460.977	-3.195
13.153	461.058	-3.259
13.156	461.136	-3.323
13.158	461.218	-3.388
13.160	461.298	-3.451
13.162	461.380	-3.515
13.164	461.461	-3.579
13.166	461.538	-3.643
13.169	461.617	-3.706
13.171	461.697	-3.768
13.173	461.777	-3.832
13.175	461.860	-3.894
13.177	461.941	-3.957
13.180	462.020	-4.019
13.182	462.100	-4.082
13.184	462.180	-4.146
13.186	462.262	-4.209
13.188	462.344	-4.272
13.191	462.422	-4.336
13.193	462.505	-4.398
13.195	462.587	-4.461
13.197	462.667	-4.523
13.199	462.745	-4.586
13.202	462.825	-4.649
13.204	462.904	-4.711
13.206	462.989	-4.772
13.208	463.066	-4.833
13.210	463.146	-4.894
13.213	463.229	-4.955
13.215	463.307	-5.017
13.217	463.390	-5.078
13.219	463.469	-5.139
13.221	463.550	-5.199
13.223	463.632	-5.259
13.226	463.707	-5.319
13.228	463.790	-5.379
13.230	463.873	-5.438
13.232	463.952	-5.498
13.234	464.035	-5.557
13.237	464.116	-5.616
13.239	464.193	-5.674
13.241	464.274	-5.733
13.243	464.356	-5.791
13.245	464.437	-5.850
13.248	464.520	-5.908
13.250	464.600	-5.966
13.252	464.677	-6.025
13.254	464.758	-6.082
13.256	464.842	-6.140
13.259	464.917	-6.196
13.261	465.001	-6.253
13.263	465.082	-6.310
13.265	465.163	-6.366
13.267	465.247	-6.421
13.269	465.323	-6.477
13.272	465.406	-6.533
13.274	465.487	-6.589
13.276	465.568	-6.644
13.278	465.649	-6.698
13.280	465.728	-6.753
13.283	465.809	-6.807
13.285	465.888	-6.860
13.287	465.971	-6.914
13.289	466.051	-6.966
13.291	466.130	-7.019
13.294	466.212	-7.071
13.296	466.293	-7.124
13.298	466.375	-7.176
13.300	466.456	-7.228
13.302	466.536	-7.280
13.305	466.621	-7.332
13.307	466.700	-7.382
13.309	466.780	-7.433
13.311	466.865	-7.484
13.313	466.946	-7.534
13.316	467.022	-7.583
13.318	467.106	-7.632
13.320	467.185	-7.682
13.322	467.269	-7.731
13.324	467.349	-7.779
13.326	467.430	-7.828
13.329	467.513	-7.877
13.331	467.593	-7.925
13.333	467.675	-7.973
13.335	467.757	-8.021
13.337	467.838	-8.068
13.340	467.917	-8.115
13.342	467.996	-8.162
13.344	468.082	-8.208
13.346	468.162	-8.254
13.348	468.246	-8.300
13.351	468.325	-8.344
13.353	468.404	-8.389
13.355	468.489	-8.434
13.357	468.568	-8.479
13.359	468.645	-8.523
13.362	468.732	-8.567
13.364	468.811	-8.609
13.366	468.896	-8.652
13.368	468.978	-8.694
13.370	469.057	-8.736
13.372	469.137	-8.778
13.375	469.217	-8.820
13.377	469.302	-8.861
13.379	469.381	-8.902
13.381	469.464	-8.942
13.383	469.549	-8.983
13.386	469.628	-9.023
13.388	469.710	-9.063
13.390	469.791	-9.103
13.392	469.872	-9.142
13.394	469.953	-9.182
13.397	470.033	-9.220
13.399	470.121	-9.258
13.401	470.200	-9.295
13.403	470.281	-9.333
13.405	470.369	-9.371
13.408	470.445	-9.408
13.410	470.525	-9.445
13.412	470.609	-9.482
13.414	470.691	-9.519
13.416	470.773	-9.554
13.419	470.856	-9.590
13.421	470.935	-9.626
13.423	471.018	-9.662
13.425	471.103	-9.697
13.427	471.178	-9.730
13.429	471.264	-9.765
13.432	471.343	-9.798
13.434	471.427	-9.831
13.436	471.508	-9.864
13.438	471.593	-9.898
13.440	471.673	-9.931
13.443	471.753	-9.963
13.445	471.835	-9.994
13.447	471.915	-10.027
13.449	471.997	-10.059
13.451	472.084	-10.090
13.454	472.166	-10.122
13.456	472.246	-10.153
13.458	472.330	-10.184
13.460	472.415	-10.214
13.462	472.497	-10.244
13.465	472.578	-10.275
13.467	472.660	-10.305
13.469	472.742	-10.334
13.471	472.823	-10.363
13.473	472.906	-10.392
13.476	472.986	-10.421
13.478	473.071	-10.450
13.480	473.153	-10.478
13.482	473.236	-10.506
13.484	473.319	-10.534
13.486	473.400	-10.562
13.489	473.479	-10.589
13.491	473.564	-10.616
13.493	473.646	-10.643
13.495	473.727	-10.670
13.497	473.809	-10.697
13.500	473.894	-10.723
13.502	473.977	-10.749
13.504	474.060	-10.776
13.506	474.140	-10.801
13.508	474.223	-10.826
13.511	474.305	-10.850
13.513	474.382	-10.875
13.515	474.471	-10.899
13.517	474.552	-10.922
13.519	474.630	-10.946
13.522	474.716	-10.970
13.524	474.799	-10.993
13.526	474.884	-11.017
13.528	474.963	-11.040
13.530	475.046	-11.063
13.532	475.131	-11.086
13.535	475.215	-11.109
13.537	475.299	-11.132
13.539	475.377	-11.156
13.541	475.461	-11.179
13.543	475.545	-11.200
13.546	475.626	-11.222
13.548	475.707	-11.245
13.550	475.789	-11.266
13.552	475.873	-11.287
13.554	475.959	-11.309
13.557	476.042	-11.330
13.559	476.124	-11.352
13.561	476.208	-11.374
13.563	476.291	-11.395
13.565	476.370	-11.415
13.568	476.454	-11.436
13.570	476.539	-11.456
13.572	476.618	-11.476
13.574	476.701	-11.497
13.576	476.784	-11.518
13.579	476.865	-11.538
13.581	476.950	-11.557
13.583	477.035	-11.577
13.585	477.114	-11.596
13.587	477.200	-11.616
13.589	477.283	-11.636
13.592	477.363	-11.656
13.594	477.445	-11.675
13.596	477.529	-11.694
13.598	477.613	-11.713
13.600	477.697	-11.731
13.603	477.778	-11.750
13.605	477.859	-11.768
13.607	477.949	-11.786
13.609	478.027	-11.804
13.611	478.113	-11.822
13.614	478.193	-11.839
13.616	478.274	-11.857
13.618	478.362	-11.874
13.620	478.446	-11.892
13.622	478.524	-11.910
13.625	478.607	-11.927
13.627	478.691	-11.945
13.629	478.776	-11.963
13.631	478.856	-11.981
13.633	478.939	-11.999
13.635	479.025	-12.017
13.638	479.107	-12.034
13.640	479.187	-12.052
13.642	479.268	-12.070
13.644	479.352	-12.087
13.646	479.437	-12.104
13.649	479.519	-12.120
13.651	479.601	-12.136
13.653	479.682	-12.151
13.655	479.767	-12.167
13.657	479.847	-12.184
13.660	479.935	-12.200
13.662	480.017	-12.215
13.664	480.098	-12.231
13.666	480.183	-12.247
13.668	480.264	-12.262
13.671	480.346	-12.279
13.673	480.430	-12.295
13.675	480.510	-12.311
13.677	480.595	-12.326
13.679	480.678	-12.341
13.682	480.760	-12.356
13.684	480.842	-12.372
13.686	480.923	-12.386
13.688	481.007	-12.401
13.690	481.091	-12.416
13.692	481.175	-12.431
13.695	481.260	-12.445
13.697	481.339	-12.460
13.699	481.423	-12.475
13.701	481.505	-12.489
13.703	481.590	-12.503
13.706	481.668	-12.517
13.708	481.754	-12.532
13.710	481.839	-12.546
13.712	481.921	-12.560
13.714	482.002	-12.574
13.717	482.090	-12.588
13.719	482.170	-12.602
13.721	482.251	-12.616
13.723	482.334	-12.630
13.725	482.421	-12.643
13.728	482.501	-12.656
13.730	482.585	-12.669
13.732	482.667	-12.683
13.734	482.749	-12.697
13.736	482.833	-12.710
13.739	482.915	-12.723
13.741	482.998	-12.736
13.743	483.082	-12.749
13.745	483.165	-12.763
13.747	483.246	-12.776
13.749	483.326	-12.790
13.752	483.410	-12.803
13.754	483.498	-12.816
13.756	483.577	-12.828
13.758	483.660	-12.841
13.760	483.743	-12.854
13.763	483.829	-12.866
13.765	483.910	-12.879
13.767	483.995	-12.891
13.769	484.080	-12.904
13.771	484.160	-12.917
13.774	484.246	-12.929
13.776	484.327	-12.943
13.778	484.411	-12.955
13.780	484.493	-12.968
13.782	484.575	-12.981
13.785	484.659	-12.993
13.787	484.740	-13.006
13.789	484.826	-13.019
13.791	484.907	-13.031
13.793	484.988	-13.042
13.795	485.073	-13.054
13.798	485.155	-13.065
13.800	485.239	-13.077
13.802	485.320	-13.088
13.804	485.404	-13.100
13.806	485.489	-13.112
13.809	485.572	-13.124
13.811	485.654	-13.135
13.813	485.731	-13.147
13.815	485.821	-13.160
13.817	485.903	-13.172
13.820	485.986	-13.184
13.822	486.068	-13.196
13.824	486.151	-13.208
13.826	486.234	-13.220
13.828	486.318	-13.231
13.831	486.401	-13.243
13.833	486.487	-13.255
13.835	486.567	-13.265
13.837	486.650	-13.277
13.839	486.731	-13.288
13.842	486.815	-13.299
13.844	486.899	-13.311
13.846	486.980	-13.322
13.848	487.063	-13.333
13.850	487.149	-13.344
13.852	487.233	-13.355
13.855	487.312	-13.366
13.857	487.396	-13.377
13.859	487.484	-13.388
13.861	487.563	-13.398
13.863	487.646	-13.410
13.866	487.732	-13.421
13.868	487.813	-13.433
13.870	487.898	-13.445
13.872	487.980	-13.457
13.874	488.064	-13.469
13.877	488.146	-13.480
13.879	488.230	-13.493
13.881	488.315	-13.505
13.883	488.400	-13.517
13.885	488.479	-13.529
13.888	488.563	-13.540
13.890	488.649	-13.552
13.892	488.727	-13.564
13.894	488.807	-13.575
13.896	488.892	-13.586
13.898	488.975	-13.598
13.901	489.059	-13.608
13.903	489.143	-13.619
13.905	489.227	-13.630
13.907	489.311	-13.641
13.909	489.392	-13.653
13.912	489.474	-13.664
13.914	489.559	-13.675
13.916	489.640	-13.686
13.918	489.721	-13.697
13.920	489.802	-13.708
13.923	489.888	-13.719
13.925	489.970	-13.731
13.927	490.055	-13.741
13.929	490.139	-13.752
13.931	490.220	-13.763
13.934	490.302	-13.773
13.936	490.387	-13.783
13.938	490.468	-13.794
13.940	490.551	-13.805
13.942	490.636	-13.815
13.945	490.717	-13.826
13.947	490.799	-13.836
13.949	490.884	-13.846
13.951	490.964	-13.856
13.953	491.051	-13.867
13.955	491.134	-13.877
13.958	491.215	-13.888
13.960	491.300	-13.899
13.962	491.382	-13.909
13.964	491.465	-13.920
13.966	491.547	-13.931
13.969	491.631	-13.942
13.971	491.714	-13.953
13.973	491.797	-13.964
13.975	491.880	-13.975
13.977	491.964	-13.986
13.980	492.049	-13.997
13.982	492.129	-14.007
13.984	492.212	-14.017
13.986	492.298	-14.027
13.988	492.376	-14.037
13.991	492.460	-14.048
13.993	492.541	-14.058
13.995	492.624	-14.068
13.997	492.709	-14.078
13.999	492.792	-14.088
14.002	492.874	-14.098
14.004	492.959	-14.108
14.006	493.040	-14.119
14.008	493.126	-14.130
14.010	493.205	-14.140
14.012	493.289	-14.150
14.015	493.373	-14.161
14.017	493.459	-14.171
14.019	493.546	-14.181
14.021	493.625	-14.192
14.023	493.708	-14.203
14.026	493.791	-14.213
14.028	493.873	-14.224
14.030	493.959	-14.234
14.032	494.042	-14.244
14.034	494.121	-14.254
14.037	494.206	-14.265
14.039	494.294	-14.275
14.041	494.373	-14.286
14.043	494.458	-14.296
14.045	494.541	-14.306
14.048	494.625	-14.316
14.050	494.709	-14.327
14.052	494.792	-14.337
14.054	494.874	-14.348
14.056	494.959	-14.358
14.058	495.039	-14.369
14.061	495.123	-14.379
14.063	495.206	-14.390
14.065	495.289	-14.400
14.067	495.371	-14.410
14.069	495.451	-14.421
14.072	495.538	-14.432
14.074	495.622	-14.443
14.076	495.703	-14.454
14.078	495.788	-14.465
14.080	495.870	-14.475
14.083	495.954	-14.486
14.085	496.035	-14.497
14.087	496.115	-14.508
14.089	496.202	-14.518
14.091	496.285	-14.528
14.094	496.369	-14.538
14.096	496.449	-14.548
14.098	496.530	-14.559
14.100	496.615	-14.569
14.102	496.695	-14.579
14.105	496.780	-14.589
14.107	496.863	-14.599
14.109	496.948	-14.608
14.111	497.030	-14.618
14.113	497.113	-14.629
14.115	497.195	-14.640
14.118	497.277	-14.650
14.120	497.361	-14.660
14.122	497.442	-14.670
14.124	497.527	-14.680
14.126	497.608	-14.691
14.129	497.692	-14.701
14.131	497.775	-14.712
14.133	497.859	-14.723
14.135	497.930	-14.733
14.137	498.026	-14.743
14.140	498.106	-14.752
14.142	498.193	-14.763
14.144	498.274	-14.773
14.146	498.358	-14.783
14.148	498.440	-14.793
14.151	498.522	-14.804
14.153	498.603	-14.815
14.155	498.686	-14.825
14.157	498.771	-14.834
14.159	498.855	-14.844
14.161	498.939	-14.855
14.164	499.022	-14.865
14.166	499.104	-14.876
14.168	499.189	-14.886
14.170	499.270	-14.896
14.172	499.355	-14.907
14.175	499.437	-14.917
14.177	499.522	-14.927
14.179	499.603	-14.938
14.181	499.688	-14.949
14.183	499.770	-14.959
14.186	499.852	-14.970
14.188	499.936	-14.980
14.190	500.022	-14.989
14.192	500.103	-14.999
14.194	500.184	-15.008
14.197	500.266	-15.018
14.199	500.352	-15.027
14.201	500.434	-15.037
14.203	500.518	-15.047
14.205	500.601	-15.057
14.208	500.685	-15.068
14.210	500.765	-15.079
14.212	500.852	-15.090
14.214	500.930	-15.101
14.216	501.015	-15.111
14.218	501.098	-15.123
14.221	501.180	-15.134
14.223	501.266	-15.145
14.225	501.349	-15.155
14.227	501.433	-15.165
14.229	501.516	-15.176
14.232	501.596	-15.186
14.234	501.679	-15.196
14.236	501.761	-15.206
14.238	501.849	-15.217
14.240	501.932	-15.227
14.243	502.014	-15.237
14.245	502.100	-15.247
14.247	502.181	-15.258
14.249	502.265	-15.269
14.251	502.349	-15.279
14.254	502.431	-15.290
14.256	502.513	-15.301
14.258	502.597	-15.312
14.260	502.680	-15.322
14.262	502.765	-15.333
14.265	502.848	-15.344
14.267	502.930	-15.354
14.269	503.011	-15.365
14.271	503.095	-15.376
14.273	503.176	-15.387
14.275	503.258	-15.397
14.278	503.345	-15.408
14.280	503.428	-15.419
14.282	503.510	-15.430
14.284	503.592	-15.440
14.286	503.681	-15.452
14.289	503.761	-15.462
14.291	503.844	-15.473
14.293	503.927	-15.484
14.295	504.005	-15.494
14.297	504.091	-15.505
14.300	504.176	-15.516
14.302	504.257	-15.527
14.304	504.341	-15.537
14.306	504.425	-15.548
14.308	504.509	-15.559
14.311	504.590	-15.570
14.313	504.675	-15.581
14.315	504.757	-15.592
14.317	504.841	-15.603
14.319	504.923	-15.613
14.321	505.010	-15.624
14.324	505.091	-15.635
14.326	505.174	-15.646
14.328	505.254	-15.657
14.330	505.339	-15.667
14.332	505.422	-15.677
14.335	505.506	-15.688
14.337	505.592	-15.699
14.339	505.673	-15.710
14.341	505.757	-15.721
14.343	505.838	-15.733
14.346	505.924	-15.743
14.348	506.003	-15.754
14.350	506.088	-15.765
14.352	506.169	-15.776
14.354	506.254	-15.787
14.357	506.338	-15.798
14.359	506.417	-15.810
14.361	506.503	-15.821
14.363	506.589	-15.832
14.365	506.667	-15.843
14.368	506.756	-15.855
14.370	506.839	-15.866
14.372	506.920	-15.878
14.374	507.003	-15.890
14.376	507.085	-15.902
14.378	507.167	-15.913
14.381	507.250	-15.924
14.383	507.339	-15.934
14.385	507.418	-15.945
14.387	507.498	-15.956
14.389	507.582	-15.967
14.392	507.666	-15.979
14.394	507.746	-15.990
14.396	507.827	-16.001
14.398	507.912	-16.012
14.400	507.995	-16.023
14.403	508.082	-16.035
14.405	508.162	-16.047
14.407	508.244	-16.059
14.409	508.330	-16.071
14.411	508.414	-16.082
14.414	508.499	-16.092
14.416	508.576	-16.103
14.418	508.660	-16.113
14.420	508.743	-16.124
14.422	508.827	-16.134
14.424	508.911	-16.144
14.427	508.993	-16.155
14.429	509.075	-16.166
14.431	509.162	-16.176
14.433	509.240	-16.187
14.435	509.323	-16.198
14.438	509.406	-16.209
14.440	509.486	-16.220
14.442	509.567	-16.230
14.444	509.653	-16.241
14.446	509.736	-16.252
14.449	509.819	-16.262
14.451	509.905	-16.274
14.453	509.985	-16.285
14.455	510.070	-16.297
14.457	510.155	-16.308
14.460	510.236	-16.319
14.462	510.318	-16.330
14.464	510.400	-16.342
14.466	510.486	-16.353
14.468	510.569	-16.364
14.471	510.651	-16.376
14.473	510.737	-16.387
14.475	510.815	-16.397
14.477	510.900	-16.408
14.479	510.985	-16.419
14.481	511.064	-16.431
14.484	511.149	-16.441
14.486	511.230	-16.453
14.488	511.313	-16.464
14.490	511.396	-16.475
14.492	511.479	-16.486
14.495	511.560	-16.497
14.497	511.644	-16.508
14.499	511.726	-16.519
14.501	511.811	-16.529
14.503	511.892	-16.540
14.506	511.974	-16.551
14.508	512.057	-16.561
14.510	512.142	-16.572
14.512	512.224	-16.582
14.514	512.310	-16.593
14.517	512.390	-16.604
14.519	512.476	-16.615
14.521	512.556	-16.626
14.523	512.640	-16.638
14.525	512.724	-16.649
14.528	512.805	-16.661
14.530	512.890	-16.672
14.532	512.974	-16.684
14.534	513.054	-16.695
14.536	513.138	-16.706
14.538	513.222	-16.717
14.541	513.305	-16.729
14.543	513.388	-16.739
14.545	513.468	-16.749
14.547	513.553	-16.760
14.549	513.637	-16.771
14.552	513.720	-16.781
14.554	513.804	-16.792
14.556	513.885	-16.803
14.558	513.969	-16.814
14.560	514.051	-16.825
14.563	514.135	-16.836
14.565	514.216	-16.847
14.567	514.303	-16.859
14.569	514.387	-16.870
14.571	514.468	-16.881
14.574	514.552	-16.894
14.576	514.636	-16.904
14.578	514.718	-16.916
14.580	514.803	-16.927
14.582	514.885	-16.937
14.584	514.968	-16.948
14.587	515.048	-16.960
14.589	515.133	-16.971
14.591	515.214	-16.982
14.593	515.295	-16.992
14.595	515.383	-17.002
14.598	515.464	-17.013
14.600	515.547	-17.024
14.602	515.630	-17.034
14.604	515.712	-17.046
14.606	515.795	-17.057
14.609	515.879	-17.068
14.611	515.963	-17.080
14.613	516.045	-17.091
14.615	516.129	-17.103
14.617	516.209	-17.115
14.620	516.296	-17.127
14.622	516.380	-17.138
14.624	516.456	-17.150
14.626	516.545	-17.161
14.628	516.628	-17.173
14.631	516.709	-17.184
14.633	516.793	-17.195
14.635	516.874	-17.207
14.637	516.960	-17.218
14.639	517.039	-17.229
14.641	517.121	-17.241
14.644	517.208	-17.252
14.646	517.289	-17.263
14.648	517.372	-17.274
14.650	517.456	-17.286
14.652	517.540	-17.297
14.655	517.624	-17.308
14.657	517.708	-17.319
14.659	517.793	-17.330
14.661	517.873	-17.341
14.663	517.959	-17.352
14.666	518.041	-17.363
14.668	518.122	-17.375
14.670	518.205	-17.387
14.672	518.292	-17.398
14.674	518.371	-17.409
14.677	518.454	-17.420
14.679	518.539	-17.431
14.681	518.619	-17.443
14.683	518.700	-17.454
14.685	518.787	-17.465
14.687	518.869	-17.476
14.690	518.954	-17.488
14.692	519.036	-17.500
14.694	519.116	-17.512
14.696	519.201	-17.523
14.698	519.280	-17.535
14.701	519.367	-17.546
14.703	519.449	-17.557
14.705	519.533	-17.569
14.707	519.611	-17.581
14.709	519.699	-17.592
14.712	519.780	-17.603
14.714	519.861	-17.614
14.716	519.948	-17.625
14.718	520.029	-17.635
14.720	520.114	-17.647
14.723	520.198	-17.658
14.725	520.280	-17.671
14.727	520.364	-17.682
14.729	520.448	-17.693
14.731	520.532	-17.705
14.734	520.613	-17.716
14.736	520.695	-17.727
14.738	520.776	-17.739
14.740	520.860	-17.751
14.742	520.944	-17.763
14.744	521.027	-17.774
14.747	521.109	-17.785
14.749	521.191	-17.797
14.751	521.276	-17.808
14.753	521.358	-17.820
14.755	521.439	-17.831
14.758	521.526	-17.843
14.760	521.607	-17.854
14.762	521.689	-17.866
14.764	521.773	-17.877
14.766	521.852	-17.889
14.769	521.938	-17.900
14.771	522.023	-17.911
14.773	522.107	-17.922
14.775	522.189	-17.933
14.777	522.271	-17.945
14.780	522.355	-17.956
14.782	522.436	-17.969
14.784	522.518	-17.980
14.786	522.606	-17.991
14.788	522.687	-18.002
14.791	522.769	-18.013
14.793	522.853	-18.025
14.795	522.936	-18.037
14.797	523.018	-18.049
14.799	523.102	-18.060
14.801	523.182	-18.071
14.804	523.267	-18.082
14.806	523.350	-18.094
14.808	523.430	-18.105
14.810	523.517	-18.117
14.812	523.599	-18.128
14.815	523.684	-18.140
14.817	523.766	-18.152
14.819	523.846	-18.163
14.821	523.934	-18.175
14.823	524.016	-18.187
14.826	524.097	-18.199
14.828	524.181	-18.211
14.830	524.267	-18.223
14.832	524.351	-18.235
14.834	524.431	-18.246
14.837	524.514	-18.258
14.839	524.598	-18.269
14.841	524.682	-18.282
14.843	524.764	-18.294
14.845	524.847	-18.305
14.847	524.932	-18.317
14.850	525.013	-18.330
14.852	525.097	-18.341
14.854	525.182	-18.353
14.856	525.262	-18.365
14.858	525.345	-18.378
14.861	525.431	-18.391
14.863	525.515	-18.403
14.865	525.593	-18.415
14.867	525.677	-18.427
14.869	525.760	-18.438
14.872	525.844	-18.450
14.874	525.927	-18.462
14.876	526.009	-18.474
14.878	526.090	-18.486
14.880	526.173	-18.497
14.883	526.261	-18.508
14.885	526.340	-18.520
14.887	526.426	-18.532
14.889	526.507	-18.544
14.891	526.588	-18.557
14.894	526.674	-18.570
14.896	526.757	-18.582
14.898	526.837	-18.594
14.900	526.923	-18.606
14.902	527.004	-18.619
14.904	527.089	-18.631
14.907	527.170	-18.643
14.909	527.255	-18.655
14.911	527.339	-18.666
14.913	527.419	-18.677
14.915	527.503	-18.690
14.918	527.586	-18.702
14.920	527.667	-18.714
14.922	527.751	-18.726
14.924	527.832	-18.739
14.926	527.917	-18.751
14.929	527.996	-18.764
14.931	528.081	-18.776
14.933	528.162	-18.788
14.935	528.249	-18.800
14.937	528.337	-18.812
14.940	528.416	-18.824
14.942	528.498	-18.837
14.944	528.583	-18.849
14.946	528.668	-18.862
14.948	528.749	-18.874
14.950	528.832	-18.886
14.953	528.915	-18.899
14.955	528.998	-18.912
14.957	529.081	-18.924
14.959	529.164	-18.937
14.961	529.244	-18.950
14.964	529.333	-18.962
14.966	529.413	-18.973
14.968	529.495	-18.985
14.970	529.576	-18.998
14.972	529.660	-19.010
14.975	529.741	-19.022
14.977	529.826	-19.034
14.979	529.909	-19.046
14.981	529.992	-19.058
14.983	530.079	-19.070
14.986	530.159	-19.083
14.988	530.244	-19.096
14.990	530.326	-19.109
14.992	530.409	-19.121
14.994	530.494	-19.134
14.997	530.575	-19.148
14.999	530.657	-19.161
15.001	530.740	-19.175
15.003	530.821	-19.188
15.005	530.906	-19.201
15.007	530.989	-19.213
15.010	531.071	-19.225
15.012	531.158	-19.237
15.014	531.234	-19.250
15.016	531.319	-19.262
15.018	531.402	-19.274
15.021	531.487	-19.286
15.023	531.570	-19.298
15.025	531.650	-19.310
15.027	531.737	-19.323
15.029	531.820	-19.336
15.032	531.902	-19.348
15.034	531.985	-19.361
15.036	532.067	-19.374
15.038	532.152	-19.387
15.040	532.234	-19.400
15.043	532.315	-19.413
15.045	532.398	-19.426
15.047	532.481	-19.439
15.049	532.564	-19.451
15.051	532.646	-19.464
15.054	532.731	-19.477
15.056	532.816	-19.489
15.058	532.897	-19.501
15.060	532.980	-19.514
15.062	533.061	-19.526
15.064	533.145	-19.539
15.067	533.226	-19.551
15.069	533.305	-19.564
15.071	533.390	-19.577
15.073	533.479	-19.589
15.075	533.558	-19.601
15.078	533.641	-19.614
15.080	533.723	-19.627
15.082	533.809	-19.639
15.084	533.894	-19.651
15.086	533.976	-19.664
15.089	534.056	-19.677
15.091	534.141	-19.690
15.093	534.216	-19.704
15.095	534.305	-19.718
15.097	534.390	-19.730
15.100	534.471	-19.743
15.102	534.554	-19.756
15.104	534.641	-19.768
15.106	534.723	-19.781
15.108	534.805	-19.794
15.110	534.888	-19.807
15.113	534.971	-19.819
15.115	535.053	-19.831
15.117	535.137	-19.843
15.119	535.220	-19.856
15.121	535.301	-19.869
15.124	535.383	-19.882
15.126	535.469	-19.895
15.128	535.545	-19.908
15.130	535.634	-19.920
15.132	535.714	-19.932
15.135	535.797	-19.945
15.137	535.881	-19.958
15.139	535.966	-19.970
15.141	536.046	-19.982
15.143	536.132	-19.994
15.146	536.216	-20.006
15.148	536.298	-20.019
15.150	536.379	-20.032
15.152	536.463	-20.045
15.154	536.545	-20.058
15.157	536.629	-20.070
15.159	536.713	-20.082
15.161	536.798	-20.095
15.163	536.880	-20.110
15.165	536.962	-20.123
15.167	537.046	-20.135
15.170	537.127	-20.148
15.172	537.210	-20.160
15.174	537.290	-20.172
15.176	537.375	-20.185
15.178	537.459	-20.198
15.181	537.544	-20.211
15.183	537.628	-20.224
15.185	537.709	-20.235
15.187	537.793	-20.248
15.189	537.873	-20.261
15.192	537.950	-20.274
15.194	538.042	-20.287
15.196	538.123	-20.300
15.198	538.205	-20.313
15.200	538.290	-20.326
15.203	538.373	-20.340
15.205	538.456	-20.353
15.207	538.539	-20.366
15.209	538.623	-20.379
15.211	538.704	-20.392
15.213	538.787	-20.404
15.216	538.872	-20.416
15.218	538.955	-20.429
15.220	539.038	-20.443
15.222	539.119	-20.456
15.224	539.206	-20.469
15.227	539.285	-20.482
15.229	539.366	-20.496
15.231	539.450	-20.509
15.233	539.537	-20.523
15.235	539.617	-20.536
15.238	539.700	-20.550
15.240	539.782	-20.563
15.242	539.867	-20.576
15.244	539.951	-20.590
15.246	540.032	-20.603
15.249	540.117	-20.616
15.251	540.197	-20.629
15.253	540.283	-20.642
15.255	540.364	-20.655
15.257	540.446	-20.668
15.260	540.532	-20.681
15.262	540.610	-20.694
15.264	540.696	-20.707
15.266	540.778	-20.720
15.268	540.859	-20.734
15.270	540.941	-20.747
15.273	541.027	-20.760
15.275	541.107	-20.773
15.277	541.191	-20.785
15.279	541.272	-20.798
15.281	541.358	-20.811
15.284	541.439	-20.824
15.286	541.524	-20.838
15.288	541.604	-20.850
15.290	541.689	-20.863
15.292	541.774	-20.876
15.295	541.857	-20.889
15.297	541.940	-20.902
15.299	542.023	-20.916
15.301	542.104	-20.929
15.303	542.188	-20.943
15.306	542.272	-20.956
15.308	542.358	-20.969
15.310	542.438	-20.982
15.312	542.522	-20.995
15.314	542.607	-21.008
15.317	542.687	-21.021
15.319	542.773	-21.035
15.321	542.853	-21.048
15.323	542.934	-21.061
15.325	543.022	-21.074
15.327	543.106	-21.088
15.330	543.186	-21.101
15.332	543.272	-21.115
15.334	543.352	-21.129
15.336	543.439	-21.142
15.338	543.517	-21.155
15.341	543.601	-21.168
15.343	543.681	-21.182
15.345	543.766	-21.196
15.347	543.849	-21.209
15.349	543.934	-21.221
15.352	544.016	-21.234
15.354	544.102	-21.248
15.356	544.184	-21.261
15.358	544.262	-21.274
15.360	544.349	-21.288
15.363	544.428	-21.301
15.365	544.512	-21.314
15.367	544.593	-21.327
15.369	544.676	-21.340
15.371	544.760	-21.354
15.373	544.842	-21.367
15.376	544.928	-21.380
15.378	545.010	-21.392
15.380	545.095	-21.405
15.382	545.178	-21.417
15.384	545.259	-21.431
15.387	545.342	-21.444
15.389	545.427	-21.457
15.391	545.508	-21.470
15.393	545.596	-21.483
15.395	545.674	-21.496
15.398	545.758	-21.509
15.400	545.840	-21.523
15.402	545.927	-21.536
15.404	546.008	-21.550
15.406	546.090	-21.563
15.409	546.173	-21.575
15.411	546.255	-21.589
15.413	546.342	-21.601
15.415	546.422	-21.615
15.417	546.503	-21.628
15.420	546.588	-21.641
15.422	546.674	-21.654
15.424	546.755	-21.667
15.426	546.837	-21.680
15.428	546.920	-21.693
15.430	547.002	-21.706
15.433	547.081	-21.718
15.435	547.168	-21.732
15.437	547.251	-21.744
15.439	547.336	-21.757
15.441	547.418	-21.770
15.444	547.500	-21.784
15.446	547.585	-21.797
15.448	547.667	-21.810
15.450	547.754	-21.824
15.452	547.836	-21.838
15.455	547.917	-21.852
15.457	547.999	-21.866
15.459	548.084	-21.879
15.461	548.164	-21.893
15.463	548.246	-21.906
15.466	548.332	-21.919
15.468	548.415	-21.933
15.470	548.498	-21.946
15.472	548.576	-21.960
15.474	548.665	-21.973
15.476	548.746	-21.986
15.479	548.829	-21.999
15.481	548.913	-22.013
15.483	548.998	-22.027
15.485	549.077	-22.040
15.487	549.162	-22.054
15.490	549.245	-22.067
15.492	549.331	-22.080
15.494	549.412	-22.094
15.496	549.494	-22.108
15.498	549.580	-22.122
15.501	549.660	-22.136
15.503	549.745	-22.151
15.505	549.829	-22.165
15.507	549.909	-22.179
15.509	549.990	-22.194
15.512	550.077	-22.209
15.514	550.161	-22.224
15.516	550.242	-22.238
15.518	550.324	-22.252
15.520	550.407	-22.267
15.523	550.491	-22.281
15.525	550.570	-22.295
15.527	550.654	-22.309
15.529	550.738	-22.323
15.531	550.820	-22.337
15.533	550.904	-22.352
15.536	550.989	-22.366
15.538	551.071	-22.379
15.540	551.153	-22.393
15.542	551.238	-22.408
15.544	551.319	-22.422
15.547	551.403	-22.436
15.549	551.486	-22.451
15.551	551.569	-22.464
15.553	551.652	-22.478
15.555	551.737	-22.493
15.558	551.817	-22.507
15.560	551.899	-22.522
15.562	551.983	-22.537
15.564	552.065	-22.551
15.566	552.147	-22.565
15.569	552.233	-22.579
15.571	552.318	-22.594
15.573	552.398	-22.609
15.575	552.479	-22.624
15.577	552.565	-22.638
15.580	552.647	-22.652
15.582	552.731	-22.666
15.584	552.812	-22.681
15.586	552.892	-22.696
15.588	552.980	-22.711
15.590	553.059	-22.726
15.593	553.142	-22.740
15.595	553.227	-22.755
15.597	553.312	-22.769
15.599	553.393	-22.784
15.601	553.475	-22.800
15.604	553.556	-22.815
15.606	553.636	-22.829
15.608	553.719	-22.844
15.610	553.806	-22.858
15.612	553.889	-22.873
15.615	553.970	-22.888
15.617	554.053	-22.903
15.619	554.138	-22.918
15.621	554.220	-22.932
15.623	554.296	-22.947
15.626	554.387	-22.962
15.628	554.464	-22.977
15.630	554.549	-22.993
15.632	554.635	-23.009
15.634	554.718	-23.024
15.636	554.799	-23.039
15.639	554.882	-23.054
15.641	554.965	-23.070
15.643	555.047	-23.086
15.645	555.131	-23.101
15.647	555.210	-23.115
15.650	555.295	-23.130
15.652	555.376	-23.145
15.654	555.459	-23.160
15.656	555.543	-23.174
15.658	555.627	-23.189
15.661	555.709	-23.204
15.663	555.792	-23.218
15.665	555.876	-23.232
15.667	555.960	-23.247
15.669	556.044	-23.262
15.672	556.126	-23.277
15.674	556.209	-23.292
15.676	556.292	-23.306
15.678	556.372	-23.321
15.680	556.457	-23.336
15.683	556.541	-23.352
15.685	556.623	-23.367
15.687	556.706	-23.383
15.689	556.787	-23.399
15.691	556.869	-23.414
15.693	556.952	-23.429
15.696	557.036	-23.445
15.698	557.119	-23.461
15.700	557.199	-23.476
15.702	557.284	-23.492
15.704	557.370	-23.508
15.707	557.451	-23.523
15.709	557.532	-23.538
15.711	557.614	-23.553
15.713	557.701	-23.569
15.715	557.783	-23.584
15.718	557.866	-23.599
15.720	557.948	-23.616
15.722	558.031	-23.631
15.724	558.113	-23.647
15.726	558.199	-23.663
15.729	558.281	-23.679
15.731	558.362	-23.695
15.733	558.444	-23.711
15.735	558.529	-23.727
15.737	558.612	-23.744
15.739	558.695	-23.760
15.742	558.779	-23.776
15.744	558.858	-23.792
15.746	558.942	-23.808
15.748	559.024	-23.823
15.750	559.106	-23.839
15.753	559.192	-23.855
15.755	559.273	-23.870
15.757	559.354	-23.887
15.759	559.444	-23.903
15.761	559.524	-23.918
15.764	559.605	-23.934
15.766	559.690	-23.951
15.768	559.769	-23.967
15.770	559.851	-23.984
15.772	559.936	-24.001
15.775	560.020	-24.017
15.777	560.101	-24.034
15.779	560.183	-24.050
15.781	560.268	-24.066
15.783	560.349	-24.082
15.786	560.434	-24.099
15.788	560.517	-24.115
15.790	560.598	-24.132
15.792	560.677	-24.148
15.794	560.765	-24.164
15.796	560.847	-24.180
15.799	560.925	-24.196
15.801	561.017	-24.213
15.803	561.096	-24.229
15.805	561.179	-24.247
15.807	561.260	-24.264
15.810	561.345	-24.280
15.812	561.429	-24.297
15.814	561.515	-24.315
15.816	561.593	-24.332
15.818	561.678	-24.351
15.821	561.757	-24.368
15.823	561.841	-24.385
15.825	561.928	-24.402
15.827	562.010	-24.418
15.829	562.091	-24.435
15.832	562.175	-24.452
15.834	562.258	-24.469
15.836	562.335	-24.486
15.838	562.421	-24.502
15.840	562.507	-24.519
15.843	562.585	-24.535
15.845	562.667	-24.552
15.847	562.751	-24.570
15.849	562.836	-24.586
15.851	562.917	-24.603
15.853	563.002	-24.620
15.856	563.080	-24.637
15.858	563.169	-24.654
15.860	563.251	-24.670
15.862	563.336	-24.687
15.864	563.417	-24.705
15.867	563.499	-24.722
15.869	563.584	-24.739
15.871	563.664	-24.756
15.873	563.745	-24.774
15.875	563.830	-24.792
15.878	563.913	-24.808
15.880	563.997	-24.826
15.882	564.075	-24.844
15.884	564.160	-24.862
15.886	564.243	-24.879
15.889	564.324	-24.896
15.891	564.410	-24.914
15.893	564.495	-24.931
15.895	564.575	-24.949
15.897	564.656	-24.966
15.899	564.741	-24.984
15.902	564.825	-25.002
15.904	564.909	-25.019
15.906	564.989	-25.037
15.908	565.073	-25.056
15.910	565.155	-25.074
15.913	565.239	-25.092
15.915	565.322	-25.110
15.917	565.403	-25.128
15.919	565.484	-25.146
15.921	565.571	-25.165
15.924	565.652	-25.183
15.926	565.734	-25.201
15.928	565.819	-25.219
15.930	565.903	-25.236
15.932	565.983	-25.254
15.935	566.065	-25.273
15.937	566.147	-25.292
15.939	566.232	-25.311
15.941	566.314	-25.329
15.943	566.399	-25.348
15.946	566.483	-25.367
15.948	566.562	-25.386
15.950	566.645	-25.405
15.952	566.727	-25.425
15.954	566.815	-25.443
15.956	566.895	-25.461
15.959	566.981	-25.479
15.961	567.059	-25.498
15.963	567.144	-25.517
15.965	567.222	-25.536
15.967	567.307	-25.554
15.970	567.392	-25.573
15.972	567.476	-25.592
15.974	567.558	-25.611
15.976	567.640	-25.631
15.978	567.726	-25.651
15.981	567.805	-25.670
15.983	567.885	-25.690
15.985	567.969	-25.709
15.987	568.054	-25.727
15.989	568.136	-25.746
15.992	568.218	-25.764
15.994	568.301	-25.784
15.996	568.381	-25.803
15.998	568.467	-25.821
16.000	568.546	-25.840
16.002	568.631	-25.858
16.005	568.714	-25.876
16.007	568.797	-25.894
16.009	568.880	-25.913
16.011	568.962	-25.932
16.013	569.043	-25.950
16.016	569.128	-25.968
16.018	569.212	-25.986
16.020	569.291	-26.004
16.022	569.376	-26.023
16.024	569.457	-26.041
16.027	569.539	-26.059
16.029	569.625	-26.077
16.031	569.704	-26.096
16.033	569.788	-26.114
16.035	569.872	-26.132
16.038	569.954	-26.151
16.040	570.035	-26.170
16.042	570.118	-26.188
16.044	570.203	-26.206
16.046	570.282	-26.224
16.049	570.366	-26.242
16.051	570.450	-26.260
16.053	570.531	-26.278
16.055	570.619	-26.296
16.057	570.698	-26.314
16.059	570.780	-26.332
16.062	570.864	-26.350
16.064	570.946	-26.367
16.066	571.030	-26.386
16.068	571.115	-26.405
16.070	571.193	-26.424
16.073	571.277	-26.444
16.075	571.362	-26.463
16.077	571.447	-26.482
16.079	571.529	-26.502
16.081	571.609	-26.521
16.084	571.692	-26.541
16.086	571.772	-26.561
16.088	571.857	-26.580
16.090	571.941	-26.598
16.092	572.022	-26.616
16.095	572.105	-26.634
16.097	572.185	-26.652
16.099	572.269	-26.670
16.101	572.354	-26.687
16.103	572.433	-26.705
16.106	572.520	-26.722
16.108	572.600	-26.740
16.110	572.679	-26.757
16.112	572.765	-26.776
16.114	572.849	-26.793
16.116	572.931	-26.811
16.119	573.012	-26.830
16.121	573.096	-26.848
16.123	573.180	-26.866
16.125	573.264	-26.883
16.127	573.344	-26.901
16.130	573.433	-26.919
16.132	573.509	-26.937
16.134	573.596	-26.955
16.136	573.677	-26.974
16.138	573.759	-26.991
16.141	573.846	-27.009
16.143	573.926	-27.026
16.145	574.007	-27.044
16.147	574.095	-27.063
16.149	574.177	-27.080
16.152	574.261	-27.098
16.154	574.344	-27.116
16.156	574.424	-27.134
16.158	574.508	-27.151
16.160	574.590	-27.169
16.162	574.673	-27.187
16.165	574.757	-27.205
16.167	574.840	-27.223
16.169	574.924	-27.242
16.171	575.005	-27.261
16.173	575.088	-27.279
16.176	575.169	-27.298
16.178	575.253	-27.317
16.180	575.333	-27.335
16.182	575.417	-27.353
16.184	575.500	-27.371
16.187	575.584	-27.388
16.189	575.667	-27.406
16.191	575.751	-27.423
16.193	575.833	-27.441
16.195	575.916	-27.458
16.198	575.998	-27.476
16.200	576.079	-27.493
16.202	576.161	-27.510
16.204	576.247	-27.528
16.206	576.329	-27.546
16.209	576.412	-27.563
16.211	576.499	-27.581
16.213	576.576	-27.599
16.215	576.659	-27.616
16.217	576.743	-27.633
16.219	576.826	-27.650
16.222	576.908	-27.668
16.224	576.992	-27.684
16.226	577.073	-27.701
16.228	577.158	-27.718
16.230	577.239	-27.736
16.233	577.321	-27.753
16.235	577.407	-27.770
16.237	577.491	-27.787
16.239	577.571	-27.804
16.241	577.654	-27.822
16.244	577.738	-27.839
16.246	577.822	-27.856
16.248	577.906	-27.874
16.250	577.985	-27.891
16.252	578.068	-27.908
16.255	578.153	-27.925
16.257	578.234	-27.941
16.259	578.314	-27.958
16.261	578.396	-27.976
16.263	578.482	-27.992
16.265	578.562	-28.009
16.268	578.650	-28.026
16.270	578.732	-28.042
16.272	578.814	-28.059
16.274	578.897	-28.077
16.276	578.979	-28.094
16.279	579.064	-28.112
16.281	579.146	-28.129
16.283	579.227	-28.146
16.285	579.310	-28.164
16.287	579.394	-28.182
16.290	579.475	-28.198
16.292	579.555	-28.215
16.294	579.637	-28.232
16.296	579.724	-28.248
16.298	579.806	-28.264
16.301	579.890	-28.280
16.303	579.973	-28.295
16.305	580.059	-28.311
16.307	580.140	-28.327
16.309	580.224	-28.344
16.312	580.304	-28.360
16.314	580.388	-28.377
16.316	580.470	-28.392
16.318	580.550	-28.408
16.320	580.632	-28.424
16.322	580.719	-28.439
16.325	580.802	-28.455
16.327	580.886	-28.470
16.329	580.968	-28.486
16.331	581.052	-28.501
16.333	581.136	-28.517
16.336	581.218	-28.533
16.338	581.299	-28.549
16.340	581.385	-28.565
16.342	581.464	-28.582
16.344	581.548	-28.598
16.347	581.632	-28.614
16.349	581.715	-28.630
16.351	581.798	-28.646
16.353	581.880	-28.661
16.355	581.963	-28.676
16.358	582.045	-28.691
16.360	582.130	-28.706
16.362	582.210	-28.721
16.364	582.295	-28.736
16.366	582.376	-28.751
16.369	582.462	-28.767
16.371	582.547	-28.781
16.373	582.627	-28.796
16.375	582.713	-28.811
16.377	582.793	-28.826
16.379	582.874	-28.841
16.382	582.960	-28.857
16.384	583.042	-28.872
16.386	583.126	-28.887
16.388	583.206	-28.902
16.390	583.286	-28.917
16.393	583.372	-28.932
16.395	583.453	-28.947
16.397	583.540	-28.962
16.399	583.624	-28.977
16.401	583.702	-28.992
16.404	583.786	-29.007
16.406	583.869	-29.022
16.408	583.950	-29.037
16.410	584.032	-29.051
16.412	584.117	-29.066
16.415	584.204	-29.080
16.417	584.288	-29.094
16.419	584.367	-29.108
16.421	584.451	-29.123
16.423	584.530	-29.137
16.425	584.614	-29.151
16.428	584.699	-29.165
16.430	584.784	-29.178
16.432	584.866	-29.193
16.434	584.953	-29.208
16.436	585.046	-29.223
16.439	585.139	-29.238
16.441	585.224	-29.253
16.443	585.307	-29.270
16.445	585.388	-29.287
16.447	585.469	-29.305
16.450	585.532	-29.323
16.452	585.610	-29.341
16.454	585.696	-29.357
16.456	585.776	-29.373
16.458	585.860	-29.388
16.461	585.941	-29.403
16.463	586.024	-29.417
16.465	586.109	-29.431
16.467	586.190	-29.444
16.469	586.274	-29.457
16.472	586.354	-29.469
16.474	586.438	-29.481
16.476	586.523	-29.495
16.478	586.597	-29.510
16.480	586.679	-29.524
16.482	586.774	-29.538
16.485	586.854	-29.551
16.487	586.937	-29.566
16.489	587.018	-29.581
16.491	587.105	-29.595
16.493	587.187	-29.609
16.496	587.271	-29.624
16.498	587.349	-29.639
16.500	587.432	-29.654
16.502	587.520	-29.668
16.504	587.600	-29.683
16.507	587.683	-29.698
16.509	587.767	-29.712
16.511	587.851	-29.726
16.513	587.931	-29.740
16.515	588.017	-29.754
16.518	588.098	-29.768
16.520	588.182	-29.782
16.522	588.263	-29.795
16.524	588.351	-29.809
16.526	588.432	-29.823
16.528	588.516	-29.837
16.531	588.596	-29.851
16.533	588.680	-29.865
16.535	588.761	-29.879
16.537	588.840	-29.893
16.539	588.920	-29.907
16.542	589.004	-29.920
16.544	589.096	-29.933
16.546	589.177	-29.947
16.548	589.258	-29.961
16.550	589.341	-29.975
16.553	589.424	-29.989
16.555	589.505	-30.002
16.557	589.590	-30.015
16.559	589.672	-30.029
16.561	589.753	-30.041
16.564	589.843	-30.055
16.566	589.922	-30.069
16.568	590.004	-30.084
16.570	590.085	-30.098
16.572	590.167	-30.110
16.575	590.252	-30.123
16.577	590.334	-30.137
16.579	590.420	-30.150
16.581	590.504	-30.163
16.583	590.587	-30.178
16.585	590.669	-30.192
16.588	590.753	-30.205
16.590	590.833	-30.218
16.592	590.917	-30.231
16.594	591.000	-30.244
16.596	591.084	-30.258
16.599	591.168	-30.272
16.601	591.248	-30.286
16.603	591.336	-30.299
16.605	591.417	-30.313
16.607	591.496	-30.327
16.610	591.581	-30.341
16.612	591.665	-30.355
16.614	591.748	-30.368
16.616	591.832	-30.383
16.618	591.916	-30.397
16.621	591.997	-30.411
16.623	592.079	-30.424
16.625	592.167	-30.438
16.627	592.248	-30.452
16.629	592.333	-30.465
16.632	592.416	-30.479
16.634	592.503	-30.493
16.636	592.583	-30.508
16.638	592.662	-30.522
16.640	592.748	-30.536
16.642	592.829	-30.551
16.645	592.912	-30.565
16.647	592.992	-30.578
16.649	593.079	-30.593
16.651	593.160	-30.607
16.653	593.241	-30.621
16.656	593.327	-30.634
16.658	593.411	-30.647
16.660	593.495	-30.660
16.662	593.577	-30.673
16.664	593.660	-30.686
16.667	593.739	-30.700
16.669	593.824	-30.714
16.671	593.912	-30.727
16.673	593.994	-30.740
16.675	594.073	-30.754
16.678	594.156	-30.768
16.680	594.239	-30.782
16.682	594.322	-30.796
16.684	594.406	-30.811
16.686	594.491	-30.825
16.688	594.572	-30.838
16.691	594.657	-30.853
16.693	594.739	-30.868
16.695	594.824	-30.883
16.697	594.906	-30.896
16.699	594.988	-30.910
16.702	595.072	-30.925
16.704	595.154	-30.938
16.706	595.238	-30.952
16.708	595.320	-30.966
16.710	595.402	-30.979
16.713	595.486	-30.991
16.715	595.571	-31.005
16.717	595.649	-31.018
16.719	595.736	-31.032
16.721	595.817	-31.045
16.724	595.899	-31.058
16.726	595.983	-31.072
16.728	596.064	-31.086
16.730	596.151	-31.100
16.732	596.234	-31.114
16.735	596.317	-31.129
16.737	596.399	-31.142
16.739	596.481	-31.156
16.741	596.565	-31.170
16.743	596.646	-31.183
16.745	596.733	-31.196
16.748	596.816	-31.209
16.750	596.896	-31.223
16.752	596.979	-31.237
16.754	597.061	-31.250
16.756	597.145	-31.263
16.759	597.229	-31.277
16.761	597.312	-31.290
16.763	597.395	-31.303
16.765	597.475	-31.317
16.767	597.562	-31.331
16.770	597.647	-31.344
16.772	597.724	-31.358
16.774	597.810	-31.370
16.776	597.893	-31.384
16.778	597.975	-31.398
16.781	598.059	-31.412
16.783	598.141	-31.424
16.785	598.223	-31.437
16.787	598.308	-31.450
16.789	598.390	-31.463
16.791	598.473	-31.477
16.794	598.556	-31.490
16.796	598.640	-31.503
16.798	598.721	-31.515
16.800	598.809	-31.528
16.802	598.888	-31.540
16.805	598.968	-31.554
16.807	599.053	-31.567
16.809	599.142	-31.580
16.811	599.222	-31.593
16.813	599.302	-31.605
16.816	599.384	-31.618
16.818	599.467	-31.630
16.820	599.551	-31.642
16.822	599.637	-31.655
16.824	599.720	-31.668
16.827	599.806	-31.680
16.829	599.886	-31.693
16.831	599.971	-31.706
16.833	600.052	-31.719
16.835	600.133	-31.732
16.838	600.220	-31.745
16.840	600.302	-31.758
16.842	600.385	-31.772
16.844	600.467	-31.786
16.846	600.549	-31.798
16.848	600.634	-31.811
16.851	600.716	-31.823
16.853	600.798	-31.836
16.855	600.885	-31.848
16.857	600.969	-31.861
16.859	601.046	-31.873
16.862	601.133	-31.886
16.864	601.216	-31.899
16.866	601.296	-31.912
16.868	601.380	-31.926
16.870	601.462	-31.939
16.873	601.547	-31.952
16.875	601.628	-31.964
16.877	601.712	-31.977
16.879	601.798	-31.989
16.881	601.876	-32.001
16.884	601.960	-32.013
16.886	602.044	-32.023
16.888	602.125	-32.034
16.890	602.209	-32.045
16.892	602.292	-32.056
16.895	602.375	-32.067
16.897	602.461	-32.079
16.899	602.541	-32.091
16.901	602.626	-32.103
16.903	602.707	-32.114
16.905	602.792	-32.125
16.908	602.876	-32.137
16.910	602.957	-32.149
16.912	603.042	-32.161
16.914	603.127	-32.172
16.916	603.206	-32.184
16.919	603.287	-32.195
16.921	603.372	-32.205
16.923	603.454	-32.215
16.925	603.540	-32.226
16.927	603.621	-32.237
16.930	603.705	-32.248
16.932	603.787	-32.259
16.934	603.873	-32.269
16.936	603.954	-32.280
16.938	604.040	-32.290
16.941	604.122	-32.300
16.943	604.206	-32.311
16.945	604.286	-32.322
16.947	604.373	-32.333
16.949	604.452	-32.343
16.951	604.535	-32.353
16.954	604.619	-32.363
16.956	604.705	-32.374
16.958	604.786	-32.384
16.960	604.869	-32.395
16.962	604.954	-32.405
16.965	605.036	-32.415
16.967	605.122	-32.425
16.969	605.201	-32.435
16.971	605.281	-32.446
16.973	605.366	-32.456
16.976	605.452	-32.466
16.978	605.533	-32.477
16.980	605.619	-32.487
16.982	605.701	-32.498
16.984	605.785	-32.509
16.987	605.865	-32.520
16.989	605.950	-32.531
16.991	606.032	-32.541
16.993	606.116	-32.551
16.995	606.199	-32.561
16.998	606.280	-32.570
17.000	606.362	-32.580
17.002	606.450	-32.589
17.004	606.533	-32.598
17.006	606.616	-32.607
17.008	606.696	-32.616
17.011	606.784	-32.626
17.013	606.865	-32.635
17.015	606.946	-32.644
17.017	607.030	-32.654
17.019	607.114	-32.664
17.022	607.199	-32.674
17.024	607.279	-32.683
17.026	607.362	-32.693
17.028	607.444	-32.703
17.030	607.529	-32.713
17.033	607.611	-32.722
17.035	607.693	-32.731
17.037	607.777	-32.741
17.039	607.858	-32.750
17.041	607.946	-32.759
17.044	608.026	-32.769
17.046	608.111	-32.778
17.048	608.193	-32.787
17.050	608.278	-32.796
17.052	608.359	-32.805
17.054	608.443	-32.814
17.057	608.529	-32.823
17.059	608.611	-32.832
17.061	608.692	-32.842
17.063	608.776	-32.851
17.065	608.857	-32.860
17.068	608.941	-32.869
17.070	609.024	-32.878
17.072	609.104	-32.887
17.074	609.190	-32.896
17.076	609.277	-32.904
17.079	609.357	-32.914
17.081	609.442	-32.923
17.083	609.526	-32.931
17.085	609.610	-32.940
17.087	609.693	-32.949
17.090	609.773	-32.958
17.092	609.854	-32.967
17.094	609.938	-32.976
17.096	610.024	-32.984
17.098	610.106	-32.992
17.101	610.189	-33.002
17.103	610.270	-33.010
17.105	610.355	-33.019
17.107	610.439	-33.027
17.109	610.521	-33.035
17.111	610.605	-33.043
17.114	610.689	-33.051
17.116	610.768	-33.059
17.118	610.855	-33.069
17.120	610.937	-33.078
17.122	611.025	-33.085
17.125	611.108	-33.094
17.127	611.190	-33.103
17.129	611.270	-33.112
17.131	611.358	-33.121
17.133	611.440	-33.130
17.136	611.522	-33.140
17.138	611.605	-33.149
17.140	611.688	-33.158
17.142	611.767	-33.166
17.144	611.853	-33.177
17.147	611.938	-33.185
17.149	612.021	-33.194
17.151	612.103	-33.202
17.153	612.189	-33.211
17.155	612.270	-33.220
17.158	612.351	-33.229
17.160	612.437	-33.238
17.162	612.518	-33.246
17.164	612.602	-33.255
17.166	612.686	-33.263
17.168	612.766	-33.272
17.171	612.854	-33.281
17.173	612.934	-33.289
17.175	613.017	-33.298
17.177	613.101	-33.307
17.179	613.183	-33.315
17.182	613.266	-33.325
17.184	613.351	-33.334
17.186	613.432	-33.344
17.188	613.517	-33.354
17.190	613.600	-33.363
17.193	613.681	-33.372
17.195	613.765	-33.382
17.197	613.848	-33.392
17.199	613.928	-33.402
17.201	614.013	-33.411
17.204	614.101	-33.421
17.206	614.178	-33.430
17.208	614.265	-33.439
17.210	614.347	-33.448
17.212	614.431	-33.458
17.214	614.514	-33.467
17.217	614.597	-33.476
17.219	614.678	-33.485
17.221	614.763	-33.495
17.223	614.846	-33.505
17.225	614.932	-33.514
17.228	615.013	-33.524
17.230	615.093	-33.534
17.232	615.178	-33.544
17.234	615.260	-33.554
17.236	615.346	-33.564
17.239	615.429	-33.574
17.241	615.514	-33.584
17.243	615.595	-33.594
17.245	615.680	-33.604
17.247	615.764	-33.615
17.250	615.843	-33.625
17.252	615.930	-33.635
17.254	616.013	-33.645
17.256	616.095	-33.655
17.258	616.177	-33.665
17.261	616.259	-33.675
17.263	616.343	-33.685
17.265	616.427	-33.695
17.267	616.511	-33.706
17.269	616.592	-33.716
17.271	616.678	-33.727
17.274	616.761	-33.738
17.276	616.845	-33.749
17.278	616.926	-33.760
17.280	617.008	-33.770
17.282	617.096	-33.781
17.285	617.174	-33.793
17.287	617.259	-33.804
17.289	617.338	-33.815
17.291	617.422	-33.826
17.293	617.506	-33.837
17.296	617.588	-33.848
17.298	617.670	-33.859
17.300	617.752	-33.870
17.302	617.841	-33.882
17.304	617.918	-33.894
17.307	618.001	-33.906
17.309	618.085	-33.918
17.311	618.168	-33.929
17.313	618.255	-33.940
17.315	618.335	-33.951
17.317	618.416	-33.963
17.320	618.502	-33.975
17.322	618.586	-33.986
17.324	618.666	-33.997
17.326	618.749	-34.009
17.328	618.830	-34.020
17.331	618.913	-34.032
17.333	618.999	-34.042
17.335	619.082	-34.054
17.337	619.166	-34.066
17.339	619.245	-34.077
17.342	619.329	-34.088
17.344	619.411	-34.101
17.346	619.499	-34.113
17.348	619.579	-34.125
17.350	619.666	-34.137
17.353	619.744	-34.149
17.355	619.829	-34.161
17.357	619.912	-34.174
17.359	619.997	-34.186
17.361	620.077	-34.198
17.364	620.159	-34.210
17.366	620.244	-34.223
17.368	620.329	-34.235
17.370	620.407	-34.247
17.372	620.492	-34.259
17.374	620.578	-34.271
17.377	620.661	-34.283
17.379	620.741	-34.296
17.381	620.824	-34.309
17.383	620.911	-34.323
17.385	620.993	-34.335
17.388	621.076	-34.348
17.390	621.161	-34.361
17.392	621.243	-34.374
17.394	621.325	-34.388
17.396	621.407	-34.402
17.399	621.491	-34.417
17.401	621.572	-34.430
17.403	621.656	-34.445
17.405	621.738	-34.458
17.407	621.822	-34.472
17.410	621.905	-34.485
17.412	621.984	-34.499
17.414	622.069	-34.513
17.416	622.150	-34.526
17.418	622.233	-34.540
17.421	622.319	-34.552
17.423	622.401	-34.565
17.425	622.482	-34.578
17.427	622.567	-34.592
17.429	622.648	-34.606
17.431	622.731	-34.619
17.434	622.819	-34.632
17.436	622.898	-34.645
17.438	622.980	-34.658
17.440	623.065	-34.672
17.442	623.151	-34.686
17.445	623.228	-34.699
17.447	623.313	-34.713
17.449	623.396	-34.726
17.451	623.481	-34.740
17.453	623.564	-34.754
17.456	623.647	-34.768
17.458	623.729	-34.783
17.460	623.814	-34.797
17.462	623.893	-34.811
17.464	623.983	-34.826
17.467	624.064	-34.840
17.469	624.145	-34.853
17.471	624.228	-34.868
17.473	624.306	-34.882
17.475	624.397	-34.896
17.477	624.478	-34.910
17.480	624.557	-34.925
17.482	624.643	-34.939
17.484	624.728	-34.953
17.486	624.810	-34.966
17.488	624.892	-34.980
17.491	624.973	-34.994
17.493	625.060	-35.008
17.495	625.137	-35.022
17.497	625.225	-35.036
17.499	625.306	-35.050
17.502	625.388	-35.064
17.504	625.471	-35.078
17.506	625.558	-35.093
17.508	625.637	-35.108
17.510	625.721	-35.122
17.513	625.807	-35.137
17.515	625.888	-35.151
17.517	625.971	-35.166
17.519	626.056	-35.181
17.521	626.136	-35.196
17.524	626.223	-35.211
17.526	626.303	-35.225
17.528	626.384	-35.241
17.530	626.467	-35.256
17.532	626.550	-35.271
17.534	626.635	-35.286
17.537	626.719	-35.301
17.539	626.799	-35.315
17.541	626.882	-35.330
17.543	626.963	-35.344
17.545	627.047	-35.358
17.548	627.134	-35.371
17.550	627.215	-35.385
17.552	627.299	-35.399
17.554	627.380	-35.414
17.556	627.463	-35.429
17.559	627.546	-35.444
17.561	627.627	-35.459
17.563	627.709	-35.474
17.565	627.790	-35.489
17.567	627.878	-35.504
17.570	627.957	-35.519
17.572	628.041	-35.534
17.574	628.124	-35.548
17.576	628.210	-35.562
17.578	628.289	-35.576
17.580	628.373	-35.590
17.583	628.457	-35.605
17.585	628.542	-35.619
17.587	628.624	-35.634
17.589	628.706	-35.648
17.591	628.791	-35.664
17.594	628.872	-35.679
17.596	628.955	-35.694
17.598	629.036	-35.709
17.600	629.123	-35.724
17.602	629.205	-35.738
17.605	629.286	-35.752
17.607	629.370	-35.766
17.609	629.452	-35.782
17.611	629.537	-35.797
17.613	629.616	-35.811
17.616	629.703	-35.825
17.618	629.786	-35.840
17.620	629.867	-35.855
17.622	629.949	-35.871
17.624	630.030	-35.886
17.627	630.114	-35.902
17.629	630.196	-35.917
17.631	630.283	-35.932
17.633	630.367	-35.948
17.635	630.451	-35.964
17.637	630.529	-35.980
17.640	630.614	-35.996
17.642	630.697	-36.010
17.644	630.779	-36.025
17.646	630.865	-36.040
17.648	630.948	-36.055
17.651	631.032	-36.071
17.653	631.115	-36.085
17.655	631.199	-36.100
17.657	631.282	-36.114
17.659	631.362	-36.129
17.662	631.447	-36.144
17.664	631.528	-36.160
17.666	631.611	-36.176
17.668	631.692	-36.191
17.670	631.776	-36.206
17.673	631.857	-36.221
17.675	631.941	-36.237
17.677	632.024	-36.252
17.679	632.105	-36.268
17.681	632.190	-36.283
17.684	632.268	-36.298
17.686	632.357	-36.314
17.688	632.440	-36.329
17.690	632.520	-36.344
17.692	632.607	-36.360
17.694	632.688	-36.376
17.697	632.769	-36.391
17.699	632.858	-36.407
17.701	632.939	-36.422
17.703	633.019	-36.438
17.705	633.103	-36.454
17.708	633.183	-36.470
17.710	633.268	-36.487
17.712	633.351	-36.502
17.714	633.436	-36.518
17.716	633.518	-36.533
17.719	633.600	-36.549
17.721	633.683	-36.565
17.723	633.768	-36.582
17.725	633.848	-36.597
17.727	633.930	-36.613
17.730	634.017	-36.628
17.732	634.101	-36.643
17.734	634.182	-36.659
17.736	634.260	-36.675
17.738	634.342	-36.691
17.740	634.427	-36.706
17.743	634.510	-36.721
17.745	634.594	-36.736
17.747	634.675	-36.752
17.749	634.758	-36.766
17.751	634.840	-36.782
17.754	634.925	-36.796
17.756	635.009	-36.812
17.758	635.092	-36.827
17.760	635.174	-36.842
17.762	635.256	-36.858
17.765	635.342	-36.874
17.767	635.428	-36.890
17.769	635.508	-36.905
17.771	635.592	-36.921
17.773	635.676	-36.937
17.776	635.760	-36.953
17.778	635.838	-36.969
17.780	635.921	-36.984
17.782	636.004	-36.999
17.784	636.091	-37.015
17.787	636.175	-37.030
17.789	636.253	-37.047
17.791	636.334	-37.063
17.793	636.420	-37.079
17.795	636.505	-37.095
17.797	636.586	-37.111
17.800	636.669	-37.127
17.802	636.752	-37.143
17.804	636.833	-37.159
17.806	636.916	-37.175
17.808	637.001	-37.192
17.811	637.086	-37.207
17.813	637.167	-37.221
17.815	637.251	-37.237
17.817	637.331	-37.253
17.819	637.415	-37.269
17.822	637.498	-37.285
17.824	637.581	-37.301
17.826	637.663	-37.317
17.828	637.747	-37.332
17.830	637.829	-37.347
17.833	637.913	-37.363
17.835	637.993	-37.379
17.837	638.084	-37.394
17.839	638.161	-37.409
17.841	638.245	-37.425
17.843	638.328	-37.442
17.846	638.409	-37.458
17.848	638.492	-37.473
17.850	638.578	-37.488
17.852	638.661	-37.504
17.854	638.746	-37.520
17.857	638.827	-37.535
17.859	638.910	-37.552
17.861	638.997	-37.568
17.863	639.076	-37.583
17.865	639.161	-37.598
17.868	639.241	-37.614
17.870	639.327	-37.630
17.872	639.411	-37.646
17.874	639.493	-37.662
17.876	639.577	-37.678
17.879	639.655	-37.694
17.881	639.741	-37.710
17.883	639.822	-37.726
17.885	639.906	-37.742
17.887	639.988	-37.758
17.890	640.072	-37.774
17.892	640.157	-37.790
17.894	640.238	-37.807
17.896	640.321	-37.824
17.898	640.405	-37.840
17.900	640.487	-37.856
17.903	640.573	-37.872
17.905	640.657	-37.888
17.907	640.739	-37.906
17.909	640.821	-37.922
17.911	640.904	-37.940
17.914	640.985	-37.956
17.916	641.063	-37.973
17.918	641.148	-37.989
17.920	641.230	-38.005
17.922	641.316	-38.021
17.925	641.396	-38.037
17.927	641.483	-38.054
17.929	641.565	-38.069
17.931	641.651	-38.086
17.933	641.732	-38.101
17.936	641.813	-38.118
17.938	641.898	-38.134
17.940	641.980	-38.151
17.942	642.061	-38.168
17.944	642.144	-38.185
17.947	642.228	-38.201
17.949	642.313	-38.217
17.951	642.393	-38.234
17.953	642.477	-38.251
17.955	642.560	-38.267
17.957	642.641	-38.284
17.960	642.728	-38.300
17.962	642.810	-38.317
17.964	642.896	-38.334
17.966	642.972	-38.351
17.968	643.062	-38.369
17.971	643.146	-38.386
17.973	643.231	-38.404
17.975	643.313	-38.421
17.977	643.396	-38.439
17.979	643.477	-38.456
17.982	643.562	-38.474
17.984	643.643	-38.491
17.986	643.726	-38.508
17.988	643.814	-38.525
17.990	643.894	-38.542
17.993	643.975	-38.560
17.995	644.057	-38.577
17.997	644.143	-38.594
17.999	644.223	-38.610
18.001	644.309	-38.627
18.003	644.390	-38.644
18.006	644.471	-38.661
18.008	644.554	-38.678
18.010	644.639	-38.696
18.012	644.720	-38.713
18.014	644.804	-38.730
18.017	644.887	-38.748
18.019	644.970	-38.764
18.021	645.053	-38.782
18.023	645.137	-38.800
18.025	645.218	-38.818
18.028	645.301	-38.835
18.030	645.380	-38.853
18.032	645.469	-38.871
18.034	645.550	-38.888
18.036	645.633	-38.906
18.039	645.718	-38.923
18.041	645.798	-38.941
18.043	645.882	-38.960
18.045	645.962	-38.977
18.047	646.045	-38.994
18.050	646.133	-39.012
18.052	646.213	-39.029
18.054	646.297	-39.047
18.056	646.381	-39.066
18.058	646.465	-39.085
18.060	646.544	-39.103
18.063	646.630	-39.122
18.065	646.710	-39.140
18.067	646.796	-39.158
18.069	646.876	-39.176
18.071	646.958	-39.194
18.074	647.045	-39.213
18.076	647.126	-39.230
18.078	647.208	-39.248
18.080	647.293	-39.266
18.082	647.376	-39.283
18.085	647.456	-39.300
18.087	647.539	-39.317
18.089	647.622	-39.335
18.091	647.706	-39.354
18.093	647.787	-39.372
18.096	647.866	-39.390
18.098	647.951	-39.408
18.100	648.036	-39.425
18.102	648.115	-39.442
18.104	648.199	-39.461
18.106	648.282	-39.478
18.109	648.367	-39.495
18.111	648.450	-39.513
18.113	648.533	-39.530
18.115	648.612	-39.547
18.117	648.696	-39.564
18.120	648.779	-39.581
18.122	648.863	-39.598
18.124	648.942	-39.615
18.126	649.025	-39.633
18.128	649.111	-39.650
18.131	649.192	-39.668
18.133	649.277	-39.685
18.135	649.361	-39.702
18.137	649.445	-39.720
18.139	649.525	-39.738
18.142	649.608	-39.756
18.144	649.692	-39.774
18.146	649.777	-39.792
18.148	649.861	-39.809
18.150	649.942	-39.827
18.153	650.021	-39.845
18.155	650.107	-39.863
18.157	650.188	-39.881
18.159	650.272	-39.898
18.161	650.356	-39.915
18.163	650.437	-39.932
18.166	650.520	-39.950
18.168	650.607	-39.968
18.170	650.687	-39.986
18.172	650.771	-40.004
18.174	650.849	-40.021
18.177	650.934	-40.039
18.179	651.021	-40.057
18.181	651.096	-40.075
18.183	651.179	-40.093
18.185	651.267	-40.110
18.188	651.351	-40.127
18.190	651.434	-40.145
18.192	651.514	-40.164
18.194	651.602	-40.182
18.196	651.683	-40.200
18.199	651.765	-40.218
18.201	651.850	-40.237
18.203	651.932	-40.256
18.205	652.014	-40.274
18.207	652.099	-40.293
18.210	652.182	-40.312
18.212	652.262	-40.330
18.214	652.348	-40.348
18.216	652.429	-40.366
18.218	652.513	-40.385
18.220	652.594	-40.402
18.223	652.676	-40.420
18.225	652.760	-40.438
18.227	652.844	-40.457
18.229	652.927	-40.475
18.231	653.007	-40.493
18.234	653.091	-40.511
18.236	653.175	-40.530
18.238	653.257	-40.548
18.240	653.342	-40.567
18.242	653.423	-40.586
18.245	653.506	-40.604
18.247	653.591	-40.623
18.249	653.674	-40.641
18.251	653.758	-40.661
18.253	653.838	-40.681
18.256	653.919	-40.699
18.258	654.004	-40.718
18.260	654.088	-40.737
18.262	654.174	-40.755
18.264	654.252	-40.774
18.266	654.338	-40.793
18.269	654.421	-40.812
18.271	654.502	-40.831
18.273	654.580	-40.849
18.275	654.668	-40.868
18.277	654.745	-40.887
18.280	654.835	-40.906
18.282	654.911	-40.924
18.284	654.997	-40.943
18.286	655.080	-40.961
18.288	655.165	-40.980
18.291	655.249	-40.999
18.293	655.328	-41.018
18.295	655.412	-41.038
18.297	655.494	-41.057
18.299	655.576	-41.076
18.302	655.661	-41.095
18.304	655.744	-41.114
18.306	655.825	-41.133
18.308	655.910	-41.152
18.310	655.991	-41.170
18.313	656.078	-41.189
18.315	656.155	-41.207
18.317	656.239	-41.224
18.319	656.325	-41.243
18.321	656.399	-41.261
18.323	656.489	-41.280
18.326	656.571	-41.299
18.328	656.655	-41.318
18.330	656.738	-41.337
18.332	656.821	-41.356
18.334	656.905	-41.374
18.337	656.988	-41.393
18.339	657.070	-41.412
18.341	657.152	-41.431
18.343	657.236	-41.450
18.345	657.321	-41.468
18.348	657.397	-41.488
18.350	657.485	-41.507
18.352	657.570	-41.526
18.354	657.650	-41.544
18.356	657.735	-41.564
18.359	657.818	-41.582
18.361	657.899	-41.601
18.363	657.985	-41.620
18.365	658.069	-41.639
18.367	658.150	-41.659
18.369	658.233	-41.678
18.372	658.313	-41.697
18.374	658.397	-41.716
18.376	658.484	-41.736
18.378	658.562	-41.756
18.380	658.644	-41.776
18.383	658.727	-41.796
18.385	658.814	-41.815
18.387	658.894	-41.836
18.389	658.980	-41.856
18.391	659.060	-41.875
18.394	659.144	-41.896
18.396	659.227	-41.917
18.398	659.308	-41.936
18.400	659.392	-41.956
18.402	659.474	-41.976
18.405	659.556	-41.996
18.407	659.643	-42.017
18.409	659.725	-42.037
18.411	659.804	-42.057
18.413	659.889	-42.077
18.416	659.971	-42.097
18.418	660.057	-42.117
18.420	660.137	-42.137
18.422	660.220	-42.158
18.424	660.305	-42.179
18.426	660.388	-42.199
18.429	660.470	-42.219
18.431	660.551	-42.240
18.433	660.637	-42.260
18.435	660.720	-42.280
18.437	660.805	-42.301
18.440	660.883	-42.322
18.442	660.966	-42.342
18.444	661.047	-42.363
18.446	661.132	-42.384
18.448	661.216	-42.404
18.451	661.300	-42.425
18.453	661.375	-42.446
18.455	661.463	-42.467
18.457	661.547	-42.487
18.459	661.628	-42.507
18.462	661.715	-42.528
18.464	661.798	-42.549
18.466	661.874	-42.571
18.468	661.963	-42.593
18.470	662.044	-42.614
18.473	662.128	-42.636
18.475	662.208	-42.657
18.477	662.289	-42.679
18.479	662.376	-42.701
18.481	662.456	-42.722
18.483	662.541	-42.743
18.486	662.621	-42.762
18.488	662.704	-42.782
18.490	662.788	-42.801
18.492	662.866	-42.822
18.494	662.952	-42.842
18.497	663.036	-42.862
18.499	663.116	-42.882
18.501	663.204	-42.903
18.503	663.286	-42.924
18.505	663.368	-42.945
18.508	663.454	-42.968
18.510	663.532	-42.990
18.512	663.616	-43.011
18.514	663.698	-43.032
18.516	663.780	-43.053
18.519	663.864	-43.074
18.521	663.946	-43.095
18.523	664.029	-43.115
18.525	664.111	-43.136
18.527	664.194	-43.157
18.529	664.278	-43.177
18.532	664.359	-43.197
18.534	664.446	-43.218
18.536	664.527	-43.239
18.538	664.606	-43.260
18.540	664.686	-43.282
18.543	664.774	-43.304
18.545	664.855	-43.325
18.547	664.938	-43.346
18.549	665.021	-43.367
18.551	665.103	-43.389
18.554	665.186	-43.410
18.556	665.271	-43.432
18.558	665.355	-43.454
18.560	665.435	-43.474
18.562	665.514	-43.496
18.565	665.600	-43.517
18.567	665.683	-43.539
18.569	665.765	-43.561
18.571	665.847	-43.582
18.573	665.928	-43.604
18.576	666.013	-43.625
18.578	666.097	-43.647
18.580	666.180	-43.668
18.582	666.261	-43.689
18.584	666.343	-43.710
18.586	666.425	-43.731
18.589	666.511	-43.752
18.591	666.592	-43.773
18.593	666.678	-43.794
18.595	666.760	-43.816
18.597	666.843	-43.838
18.600	666.923	-43.860
18.602	667.009	-43.882
18.604	667.089	-43.904
18.606	667.175	-43.927
18.608	667.257	-43.949
18.611	667.339	-43.972
18.613	667.422	-43.995
18.615	667.503	-44.018
18.617	667.588	-44.040
18.619	667.671	-44.063
18.622	667.752	-44.085
18.624	667.835	-44.108
18.626	667.917	-44.131
18.628	667.999	-44.153
18.630	668.084	-44.175
18.632	668.167	-44.197
18.635	668.248	-44.220
18.637	668.333	-44.242
18.639	668.418	-44.264
18.641	668.497	-44.285
18.643	668.581	-44.308
18.646	668.663	-44.329
18.648	668.745	-44.351
18.650	668.829	-44.374
18.652	668.914	-44.397
18.654	668.993	-44.419
18.657	669.076	-44.441
18.659	669.160	-44.464
18.661	669.245	-44.488
18.663	669.327	-44.511
18.665	669.410	-44.535
18.668	669.493	-44.558
18.670	669.572	-44.582
18.672	669.658	-44.605
18.674	669.739	-44.628
18.676	669.819	-44.652
18.679	669.903	-44.676
18.681	669.990	-44.700
18.683	670.068	-44.723
18.685	670.152	-44.748
18.687	670.236	-44.771
18.689	670.320	-44.794
18.692	670.403	-44.818
18.694	670.484	-44.841
18.696	670.567	-44.865
18.698	670.649	-44.889
18.700	670.733	-44.912
18.703	670.820	-44.936
18.705	670.900	-44.960
18.707	670.980	-44.983
18.709	671.067	-45.007
18.711	671.149	-45.032
18.714	671.231	-45.056
18.716	671.311	-45.079
18.718	671.393	-45.103
18.720	671.480	-45.128
18.722	671.561	-45.152
18.725	671.643	-45.177
18.727	671.724	-45.202
18.729	671.808	-45.227
18.731	671.894	-45.252
18.733	671.975	-45.277
18.736	672.059	-45.302
18.738	672.139	-45.327
18.740	672.221	-45.353
18.742	672.304	-45.379
18.744	672.386	-45.404
18.746	672.470	-45.429
18.749	672.553	-45.453
18.751	672.640	-45.478
18.753	672.717	-45.503
18.755	672.803	-45.529
18.757	672.883	-45.554
18.760	672.967	-45.579
18.762	673.046	-45.604
18.764	673.133	-45.630
18.766	673.215	-45.656
18.768	673.296	-45.681
18.771	673.378	-45.708
18.773	673.462	-45.733
18.775	673.546	-45.759
18.777	673.626	-45.784
18.779	673.708	-45.810
18.782	673.794	-45.836
18.784	673.872	-45.861
18.786	673.955	-45.887
18.788	674.038	-45.913
18.790	674.121	-45.938
18.792	674.207	-45.964
18.795	674.287	-45.990
18.797	674.369	-46.017
18.799	674.452	-46.043
18.801	674.532	-46.070
18.803	674.618	-46.095
18.806	674.702	-46.121
18.808	674.782	-46.147
18.810	674.863	-46.173
18.812	674.948	-46.200
18.814	675.032	-46.226
18.817	675.113	-46.251
18.819	675.197	-46.277
18.821	675.279	-46.303
18.823	675.363	-46.329
18.825	675.444	-46.355
18.828	675.527	-46.383
18.830	675.611	-46.410
18.832	675.693	-46.436
18.834	675.774	-46.463
18.836	675.857	-46.491
18.839	675.939	-46.519
18.841	676.023	-46.546
18.843	676.107	-46.572
18.845	676.190	-46.599
18.847	676.270	-46.626
18.849	676.354	-46.654
18.852	676.437	-46.682
18.854	676.520	-46.709
18.856	676.600	-46.737
18.858	676.685	-46.763
18.860	676.765	-46.790
18.863	676.848	-46.817
18.865	676.930	-46.845
18.867	677.016	-46.873
18.869	677.097	-46.900
18.871	677.179	-46.927
18.874	677.261	-46.954
18.876	677.343	-46.981
18.878	677.426	-47.008
18.880	677.506	-47.037
18.882	677.589	-47.065
18.885	677.673	-47.093
18.887	677.753	-47.121
18.889	677.838	-47.150
18.891	677.922	-47.178
18.893	678.005	-47.206
18.895	678.089	-47.234
18.898	678.171	-47.263
18.900	678.252	-47.293
18.902	678.334	-47.322
18.904	678.414	-47.351
18.906	678.498	-47.381
18.909	678.583	-47.410
18.911	678.664	-47.439
18.913	678.745	-47.469
18.915	678.828	-47.499
18.917	678.912	-47.529
18.920	678.992	-47.558
18.922	679.076	-47.588
18.924	679.160	-47.618
18.926	679.240	-47.647
18.928	679.323	-47.678
18.931	679.405	-47.708
18.933	679.488	-47.739
18.935	679.567	-47.770
18.937	679.653	-47.800
18.939	679.738	-47.830
18.942	679.819	-47.861
18.944	679.899	-47.891
18.946	679.985	-47.922
18.948	680.066	-47.953
18.950	680.149	-47.985
18.952	680.233	-48.016
18.955	680.313	-48.047
18.957	680.394	-48.079
18.959	680.478	-48.111
18.961	680.560	-48.143
18.963	680.643	-48.175
18.966	680.723	-48.207
18.968	680.811	-48.239
18.970	680.892	-48.271
18.972	680.976	-48.303
18.974	681.055	-48.336
18.977	681.142	-48.370
18.979	681.222	-48.402
18.981	681.306	-48.435
18.983	681.388	-48.469
18.985	681.466	-48.503
18.988	681.552	-48.537
18.990	681.633	-48.570
18.992	681.716	-48.605
18.994	681.800	-48.639
