t /s	T /°C	HF /mw
8.838	306.115	-4.731
8.846	306.283	-4.735
8.854	306.448	-4.739
8.863	306.614	-4.743
8.871	306.783	-4.747
8.879	306.950	-4.750
8.888	307.116	-4.753
8.896	307.286	-4.756
8.904	307.451	-4.758
8.913	307.618	-4.760
8.921	307.785	-4.762
8.929	307.952	-4.764
8.938	308.119	-4.766
8.946	308.289	-4.768
8.954	308.458	-4.770
8.963	308.621	-4.771
8.971	308.791	-4.773
8.979	308.960	-4.775
8.988	309.128	-4.777
8.996	309.291	-4.779
9.004	309.458	-4.781
9.013	309.627	-4.782
9.021	309.793	-4.784
9.029	309.962	-4.786
9.038	310.131	-4.787
9.046	310.292	-4.788
9.054	310.463	-4.790
9.063	310.629	-4.791
9.071	310.800	-4.792
9.079	310.963	-4.793
9.088	311.133	-4.795
9.096	311.303	-4.796
9.104	311.467	-4.797
9.113	311.636	-4.798
9.121	311.805	-4.799
9.129	311.973	-4.800
9.138	312.142	-4.802
9.146	312.311	-4.803
9.154	312.476	-4.804
9.163	312.640	-4.805
9.171	312.809	-4.806
9.179	312.974	-4.807
9.188	313.140	-4.808
9.196	313.310	-4.810
9.204	313.479	-4.811
9.213	313.642	-4.812
9.221	313.812	-4.813
9.229	313.980	-4.815
9.238	314.156	-4.817
9.246	314.317	-4.817
9.254	314.488	-4.818
9.263	314.653	-4.819
9.271	314.820	-4.820
9.279	314.990	-4.821
9.288	315.160	-4.822
9.296	315.325	-4.823
9.304	315.492	-4.824
9.313	315.661	-4.825
9.321	315.826	-4.825
9.329	315.996	-4.827
9.338	316.161	-4.828
9.346	316.330	-4.829
9.354	316.494	-4.830
9.363	316.662	-4.831
9.371	316.830	-4.832
9.379	316.997	-4.833
9.388	317.167	-4.833
9.396	317.336	-4.834
9.404	317.500	-4.835
9.413	317.668	-4.836
9.421	317.837	-4.837
9.429	318.006	-4.837
9.438	318.177	-4.838
9.446	318.340	-4.838
9.454	318.508	-4.839
9.463	318.677	-4.840
9.471	318.850	-4.841
9.479	319.015	-4.841
9.488	319.178	-4.841
9.496	319.347	-4.841
9.504	319.516	-4.842
9.513	319.691	-4.843
9.521	319.852	-4.843
9.529	320.022	-4.844
9.538	320.188	-4.845
9.546	320.356	-4.846
9.554	320.529	-4.847
9.563	320.690	-4.847
9.571	320.865	-4.848
9.579	321.034	-4.849
9.588	321.202	-4.849
9.596	321.368	-4.849
9.604	321.539	-4.850
9.613	321.709	-4.850
9.621	321.879	-4.851
9.629	322.043	-4.851
9.638	322.208	-4.851
9.646	322.377	-4.852
9.654	322.545	-4.853
9.663	322.708	-4.853
9.671	322.881	-4.854
9.679	323.051	-4.855
9.688	323.220	-4.855
9.696	323.388	-4.856
9.704	323.555	-4.856
9.713	323.725	-4.857
9.721	323.892	-4.857
9.729	324.060	-4.858
9.738	324.227	-4.858
9.746	324.397	-4.858
9.754	324.564	-4.858
9.763	324.731	-4.859
9.771	324.898	-4.859
9.779	325.070	-4.860
9.788	325.238	-4.861
9.796	325.402	-4.861
9.804	325.573	-4.862
9.813	325.740	-4.862
9.821	325.911	-4.863
9.829	326.077	-4.863
9.838	326.245	-4.864
9.846	326.418	-4.865
9.854	326.584	-4.865
9.863	326.753	-4.866
9.871	326.917	-4.866
9.879	327.091	-4.867
9.888	327.255	-4.867
9.896	327.418	-4.868
9.904	327.591	-4.869
9.913	327.757	-4.869
9.921	327.927	-4.870
9.929	328.093	-4.871
9.938	328.263	-4.871
9.946	328.430	-4.872
9.954	328.602	-4.872
9.963	328.768	-4.873
9.971	328.933	-4.874
9.979	329.102	-4.874
9.988	329.277	-4.875
9.996	329.446	-4.875
10.004	329.612	-4.876
10.013	329.779	-4.876
10.021	329.948	-4.877
10.029	330.115	-4.878
10.038	330.286	-4.879
10.046	330.452	-4.879
10.054	330.623	-4.880
10.063	330.791	-4.880
10.071	330.960	-4.881
10.079	331.129	-4.882
10.088	331.300	-4.883
10.096	331.468	-4.883
10.104	331.633	-4.884
10.113	331.799	-4.884
10.121	331.971	-4.885
10.129	332.133	-4.885
10.138	332.302	-4.886
10.146	332.469	-4.886
10.154	332.641	-4.887
10.163	332.808	-4.888
10.171	332.975	-4.888
10.179	333.144	-4.889
10.188	333.313	-4.890
10.196	333.485	-4.891
10.204	333.652	-4.891
10.213	333.818	-4.892
10.221	333.986	-4.892
10.229	334.157	-4.893
10.238	334.322	-4.893
10.246	334.491	-4.894
10.254	334.657	-4.894
10.263	334.824	-4.895
10.271	334.993	-4.896
10.279	335.159	-4.896
10.288	335.333	-4.898
10.296	335.503	-4.899
10.304	335.669	-4.899
10.313	335.836	-4.900
10.321	336.004	-4.901
10.329	336.174	-4.902
10.338	336.345	-4.903
10.346	336.515	-4.904
10.354	336.683	-4.905
10.363	336.848	-4.905
10.371	337.017	-4.906
10.379	337.183	-4.907
10.388	337.351	-4.907
10.396	337.523	-4.909
10.404	337.692	-4.909
10.413	337.857	-4.910
10.421	338.024	-4.910
10.429	338.195	-4.911
10.438	338.361	-4.912
10.446	338.528	-4.913
10.454	338.699	-4.913
10.463	338.866	-4.914
10.471	339.037	-4.915
10.479	339.201	-4.915
10.488	339.374	-4.916
10.496	339.544	-4.916
10.504	339.710	-4.917
10.513	339.876	-4.918
10.521	340.041	-4.918
10.529	340.208	-4.919
10.538	340.380	-4.920
10.546	340.544	-4.921
10.554	340.715	-4.922
10.563	340.882	-4.923
10.571	341.051	-4.924
10.579	341.219	-4.925
10.588	341.386	-4.926
10.596	341.552	-4.927
10.604	341.724	-4.928
10.613	341.889	-4.928
10.621	342.058	-4.930
10.629	342.223	-4.930
10.638	342.396	-4.931
10.646	342.566	-4.932
10.654	342.734	-4.932
10.663	342.899	-4.933
10.671	343.066	-4.934
10.679	343.238	-4.935
10.688	343.409	-4.936
10.696	343.576	-4.936
10.704	343.741	-4.936
10.713	343.910	-4.937
10.721	344.079	-4.938
10.729	344.249	-4.939
10.738	344.416	-4.940
10.746	344.581	-4.940
10.754	344.745	-4.941
10.763	344.917	-4.942
10.771	345.084	-4.943
10.779	345.259	-4.944
10.788	345.426	-4.945
10.796	345.590	-4.945
10.804	345.762	-4.946
10.813	345.927	-4.947
10.821	346.097	-4.948
10.829	346.265	-4.948
10.838	346.429	-4.948
10.846	346.597	-4.949
10.854	346.771	-4.950
10.863	346.936	-4.951
10.871	347.106	-4.952
10.879	347.272	-4.952
10.888	347.443	-4.953
10.896	347.611	-4.954
10.904	347.776	-4.955
10.913	347.942	-4.955
10.921	348.113	-4.956
10.929	348.280	-4.957
10.938	348.449	-4.957
10.946	348.619	-4.958
10.954	348.785	-4.958
10.963	348.949	-4.958
10.971	349.125	-4.959
10.979	349.293	-4.959
10.988	349.457	-4.959
10.996	349.625	-4.960
11.004	349.796	-4.961
11.013	349.965	-4.962
11.021	350.132	-4.962
11.029	350.297	-4.963
11.038	350.469	-4.964
11.046	350.635	-4.964
11.054	350.799	-4.965
11.063	350.969	-4.965
11.071	351.137	-4.966
11.079	351.303	-4.966
11.088	351.471	-4.966
11.096	351.641	-4.967
11.104	351.809	-4.967
11.113	351.978	-4.968
11.121	352.142	-4.968
11.129	352.308	-4.968
11.138	352.477	-4.969
11.146	352.651	-4.969
11.154	352.814	-4.969
11.163	352.981	-4.970
11.171	353.149	-4.970
11.179	353.315	-4.970
11.188	353.488	-4.971
11.196	353.657	-4.971
11.204	353.824	-4.971
11.213	353.993	-4.972
11.221	354.160	-4.972
11.229	354.328	-4.973
11.238	354.492	-4.973
11.246	354.662	-4.974
11.254	354.828	-4.974
11.263	354.997	-4.975
11.271	355.165	-4.975
11.279	355.339	-4.976
11.288	355.498	-4.976
11.296	355.671	-4.977
11.304	355.837	-4.977
11.313	356.006	-4.977
11.321	356.170	-4.978
11.329	356.343	-4.978
11.338	356.509	-4.979
11.346	356.680	-4.979
11.354	356.846	-4.979
11.363	357.015	-4.980
11.371	357.185	-4.980
11.379	357.357	-4.980
11.388	357.522	-4.979
11.396	357.689	-4.979
11.404	357.860	-4.979
11.413	358.024	-4.978
11.421	358.195	-4.978
11.429	358.364	-4.978
11.438	358.526	-4.977
11.446	358.695	-4.977
11.454	358.865	-4.977
11.463	359.031	-4.977
11.471	359.195	-4.977
11.479	359.366	-4.978
11.488	359.529	-4.977
11.496	359.702	-4.977
11.504	359.871	-4.977
11.513	360.038	-4.977
11.521	360.207	-4.976
11.529	360.376	-4.976
11.538	360.541	-4.976
11.546	360.711	-4.975
11.554	360.872	-4.974
11.563	361.048	-4.974
11.571	361.215	-4.974
11.579	361.384	-4.973
11.588	361.548	-4.972
11.596	361.707	-4.971
11.604	361.880	-4.971
11.613	362.047	-4.970
11.621	362.217	-4.969
11.629	362.384	-4.969
11.638	362.557	-4.969
11.646	362.724	-4.968
11.654	362.892	-4.967
11.663	363.058	-4.966
11.671	363.226	-4.966
11.679	363.393	-4.965
11.688	363.561	-4.964
11.696	363.730	-4.964
11.704	363.901	-4.963
11.713	364.069	-4.962
11.721	364.234	-4.961
11.729	364.405	-4.961
11.738	364.570	-4.961
11.746	364.740	-4.961
11.754	364.911	-4.961
11.763	365.074	-4.960
11.771	365.244	-4.960
11.779	365.411	-4.960
11.788	365.577	-4.960
11.796	365.742	-4.960
11.804	365.914	-4.960
11.813	366.083	-4.960
11.821	366.252	-4.961
11.829	366.420	-4.961
11.838	366.587	-4.961
11.846	366.759	-4.961
11.854	366.923	-4.961
11.863	367.091	-4.961
11.871	367.259	-4.961
11.879	367.426	-4.962
11.888	367.589	-4.961
11.896	367.762	-4.962
11.904	367.925	-4.962
11.913	368.096	-4.962
11.921	368.263	-4.962
11.929	368.428	-4.962
11.938	368.598	-4.963
11.946	368.764	-4.963
11.954	368.933	-4.963
11.963	369.102	-4.963
11.971	369.267	-4.963
11.979	369.440	-4.964
11.988	369.604	-4.964
11.996	369.777	-4.965
12.004	369.943	-4.965
12.013	370.106	-4.966
12.021	370.277	-4.967
12.029	370.448	-4.968
12.038	370.609	-4.968
12.046	370.779	-4.969
12.054	370.941	-4.970
12.063	371.109	-4.971
12.071	371.276	-4.972
12.079	371.442	-4.973
12.088	371.611	-4.975
12.096	371.782	-4.976
12.104	371.946	-4.977
12.113	372.117	-4.979
12.121	372.284	-4.981
12.129	372.455	-4.983
12.138	372.618	-4.985
12.146	372.783	-4.986
12.154	372.950	-4.988
12.163	373.117	-4.990
12.171	373.283	-4.992
12.179	373.453	-4.994
12.188	373.628	-4.997
12.196	373.786	-4.998
12.204	373.950	-5.000
12.213	374.124	-5.003
12.221	374.291	-5.005
12.229	374.457	-5.007
12.238	374.628	-5.010
12.246	374.789	-5.011
12.254	374.959	-5.014
12.263	375.128	-5.015
12.271	375.292	-5.017
12.279	375.463	-5.019
12.288	375.632	-5.021
12.296	375.802	-5.023
12.304	375.961	-5.024
12.313	376.128	-5.026
12.321	376.294	-5.027
12.329	376.463	-5.029
12.338	376.631	-5.030
12.346	376.799	-5.031
12.354	376.969	-5.032
12.363	377.137	-5.033
12.371	377.302	-5.034
12.379	377.467	-5.036
12.388	377.637	-5.037
12.396	377.805	-5.038
12.404	377.972	-5.039
12.413	378.141	-5.040
12.421	378.306	-5.041
12.429	378.475	-5.042
12.438	378.643	-5.043
12.446	378.810	-5.044
12.454	378.974	-5.045
12.463	379.142	-5.046
12.471	379.312	-5.047
12.479	379.480	-5.048
12.488	379.650	-5.049
12.496	379.819	-5.050
12.504	379.989	-5.051
12.513	380.154	-5.051
12.521	380.315	-5.052
12.529	380.487	-5.053
12.538	380.648	-5.053
12.546	380.818	-5.054
12.554	380.986	-5.055
12.563	381.156	-5.056
12.571	381.318	-5.056
12.579	381.489	-5.057
12.588	381.658	-5.057
12.596	381.824	-5.058
12.604	381.991	-5.058
12.613	382.159	-5.059
12.621	382.328	-5.060
12.629	382.493	-5.060
12.638	382.661	-5.061
12.646	382.829	-5.061
12.654	382.997	-5.062
12.663	383.164	-5.063
12.671	383.332	-5.064
12.679	383.500	-5.064
12.688	383.667	-5.064
12.696	383.838	-5.065
12.704	384.005	-5.065
12.713	384.171	-5.065
12.721	384.342	-5.065
12.729	384.507	-5.065
12.738	384.674	-5.065
12.746	384.843	-5.065
12.754	385.008	-5.065
12.763	385.175	-5.065
12.771	385.346	-5.065
12.779	385.509	-5.065
12.788	385.682	-5.065
12.796	385.847	-5.065
12.804	386.017	-5.065
12.813	386.183	-5.065
12.821	386.350	-5.065
12.829	386.520	-5.066
12.838	386.688	-5.066
12.846	386.854	-5.066
12.854	387.027	-5.066
12.863	387.194	-5.066
12.871	387.359	-5.067
12.879	387.534	-5.067
12.888	387.694	-5.067
12.896	387.861	-5.067
12.904	388.034	-5.068
12.913	388.199	-5.068
12.921	388.362	-5.068
12.929	388.534	-5.068
12.938	388.701	-5.068
12.946	388.868	-5.068
12.954	389.033	-5.068
12.963	389.204	-5.068
12.971	389.368	-5.068
12.979	389.536	-5.068
12.988	389.704	-5.068
12.996	389.873	-5.068
13.004	390.041	-5.068
13.013	390.208	-5.068
13.021	390.371	-5.068
13.029	390.541	-5.069
13.038	390.713	-5.069
13.046	390.873	-5.068
13.054	391.049	-5.069
13.063	391.211	-5.068
13.071	391.381	-5.068
13.079	391.551	-5.068
13.088	391.717	-5.068
13.096	391.889	-5.068
13.104	392.057	-5.068
13.113	392.220	-5.067
13.121	392.386	-5.067
13.129	392.554	-5.068
13.138	392.728	-5.068
13.146	392.893	-5.068
13.154	393.057	-5.067
13.163	393.226	-5.067
13.171	393.397	-5.068
13.179	393.566	-5.067
13.188	393.732	-5.068
13.196	393.898	-5.068
13.204	394.065	-5.068
13.213	394.231	-5.067
13.221	394.401	-5.066
13.229	394.571	-5.066
13.238	394.740	-5.066
13.246	394.909	-5.066
13.254	395.072	-5.066
13.263	395.242	-5.066
13.271	395.409	-5.066
13.279	395.575	-5.065
13.288	395.745	-5.065
13.296	395.909	-5.065
13.304	396.075	-5.066
13.313	396.244	-5.066
13.321	396.413	-5.066
13.329	396.575	-5.066
13.338	396.746	-5.066
13.346	396.909	-5.065
13.354	397.079	-5.065
13.363	397.248	-5.065
13.371	397.417	-5.065
13.379	397.582	-5.065
13.388	397.745	-5.064
13.396	397.920	-5.064
13.404	398.086	-5.064
13.413	398.255	-5.064
13.421	398.424	-5.063
13.429	398.590	-5.062
13.438	398.758	-5.062
13.446	398.929	-5.062
13.454	399.092	-5.061
13.463	399.261	-5.061
13.471	399.429	-5.060
13.479	399.596	-5.060
13.488	399.767	-5.060
13.496	399.932	-5.059
13.504	400.098	-5.059
13.513	400.267	-5.059
13.521	400.435	-5.059
13.529	400.603	-5.059
13.538	400.770	-5.058
13.546	400.938	-5.058
13.554	401.102	-5.058
13.563	401.274	-5.058
13.571	401.437	-5.057
13.579	401.602	-5.056
13.588	401.773	-5.056
13.596	401.938	-5.055
13.604	402.108	-5.055
13.613	402.277	-5.054
13.621	402.444	-5.054
13.629	402.613	-5.053
13.638	402.782	-5.053
13.646	402.950	-5.052
13.654	403.118	-5.052
13.663	403.283	-5.051
13.671	403.452	-5.051
13.679	403.619	-5.051
13.688	403.793	-5.051
13.696	403.955	-5.050
13.704	404.125	-5.049
13.713	404.293	-5.048
13.721	404.458	-5.047
13.729	404.628	-5.047
13.738	404.797	-5.046
13.746	404.964	-5.045
13.754	405.129	-5.044
13.763	405.300	-5.043
13.771	405.472	-5.042
13.779	405.632	-5.041
13.788	405.801	-5.040
13.796	405.969	-5.040
13.804	406.136	-5.039
13.813	406.310	-5.039
13.821	406.474	-5.038
13.829	406.642	-5.037
13.838	406.806	-5.036
13.846	406.974	-5.035
13.854	407.146	-5.035
13.863	407.314	-5.034
13.871	407.476	-5.032
13.879	407.639	-5.031
13.888	407.809	-5.030
13.896	407.971	-5.028
13.904	408.146	-5.027
13.913	408.308	-5.026
13.921	408.474	-5.025
13.929	408.645	-5.024
13.938	408.814	-5.023
13.946	408.991	-5.022
13.954	409.158	-5.021
13.963	409.326	-5.020
13.971	409.493	-5.019
13.979	409.664	-5.018
13.988	409.831	-5.017
13.996	410.001	-5.015
14.004	410.168	-5.014
14.013	410.334	-5.012
14.021	410.505	-5.012
14.029	410.670	-5.010
14.038	410.840	-5.009
14.046	411.003	-5.008
14.054	411.177	-5.008
14.063	411.342	-5.007
14.071	411.511	-5.007
14.079	411.677	-5.006
14.088	411.848	-5.006
14.096	412.012	-5.005
14.104	412.181	-5.004
14.113	412.344	-5.003
14.121	412.517	-5.003
14.129	412.685	-5.002
14.138	412.853	-5.001
14.146	413.018	-4.999
14.154	413.188	-4.999
14.163	413.354	-4.997
14.171	413.521	-4.996
14.179	413.692	-4.995
14.188	413.859	-4.994
14.196	414.027	-4.992
14.204	414.194	-4.991
14.213	414.363	-4.990
14.221	414.533	-4.989
14.229	414.697	-4.988
14.238	414.866	-4.987
14.246	415.034	-4.987
14.254	415.201	-4.986
14.263	415.372	-4.985
14.271	415.536	-4.985
14.279	415.699	-4.983
14.288	415.868	-4.983
14.296	416.039	-4.982
14.304	416.208	-4.981
14.313	416.375	-4.980
14.321	416.544	-4.978
14.329	416.716	-4.978
14.338	416.882	-4.977
14.346	417.047	-4.975
14.354	417.211	-4.974
14.363	417.379	-4.973
14.371	417.548	-4.972
14.379	417.715	-4.971
14.388	417.883	-4.969
14.396	418.054	-4.968
14.404	418.224	-4.967
14.413	418.385	-4.965
14.421	418.556	-4.964
14.429	418.724	-4.962
14.438	418.889	-4.960
14.446	419.062	-4.959
14.454	419.230	-4.958
14.463	419.399	-4.956
14.471	419.567	-4.955
14.479	419.736	-4.953
14.488	419.899	-4.952
14.496	420.068	-4.951
14.504	420.239	-4.949
14.513	420.405	-4.948
14.521	420.567	-4.947
14.529	420.739	-4.946
14.538	420.906	-4.945
14.546	421.076	-4.944
14.554	421.244	-4.942
14.563	421.409	-4.941
14.571	421.581	-4.939
14.579	421.745	-4.937
14.588	421.916	-4.936
14.596	422.078	-4.934
14.604	422.248	-4.932
14.613	422.416	-4.930
14.621	422.586	-4.928
14.629	422.751	-4.927
14.638	422.921	-4.925
14.646	423.087	-4.924
14.654	423.259	-4.923
14.663	423.423	-4.921
14.671	423.595	-4.920
14.679	423.763	-4.919
14.688	423.930	-4.918
14.696	424.098	-4.916
14.704	424.265	-4.915
14.713	424.431	-4.914
14.721	424.598	-4.912
14.729	424.765	-4.911
14.738	424.936	-4.909
14.746	425.107	-4.908
14.754	425.269	-4.907
14.763	425.439	-4.906
14.771	425.604	-4.904
14.779	425.774	-4.903
14.788	425.943	-4.902
14.796	426.112	-4.901
14.804	426.279	-4.899
14.813	426.450	-4.898
14.821	426.613	-4.897
14.829	426.783	-4.896
14.838	426.952	-4.894
14.846	427.118	-4.892
14.854	427.283	-4.890
14.863	427.457	-4.889
14.871	427.629	-4.888
14.879	427.791	-4.885
14.888	427.959	-4.884
14.896	428.126	-4.882
14.904	428.296	-4.881
14.913	428.464	-4.879
14.921	428.631	-4.877
14.929	428.799	-4.876
14.938	428.969	-4.874
14.946	429.134	-4.873
14.954	429.303	-4.871
14.963	429.472	-4.869
14.971	429.641	-4.868
14.979	429.804	-4.866
14.988	429.973	-4.865
14.996	430.140	-4.864
15.004	430.311	-4.862
15.013	430.479	-4.861
15.021	430.643	-4.859
15.029	430.813	-4.857
15.038	430.980	-4.855
15.046	431.147	-4.854
15.054	431.316	-4.852
15.063	431.481	-4.850
15.071	431.649	-4.848
15.079	431.819	-4.847
15.088	431.985	-4.845
15.096	432.153	-4.843
15.104	432.322	-4.841
15.113	432.488	-4.839
15.121	432.656	-4.837
15.129	432.820	-4.835
15.138	432.992	-4.833
15.146	433.160	-4.831
15.154	433.328	-4.829
15.163	433.498	-4.827
15.171	433.666	-4.825
15.179	433.832	-4.823
15.188	434.000	-4.821
15.196	434.170	-4.819
15.204	434.337	-4.817
15.213	434.504	-4.815
15.221	434.672	-4.813
15.229	434.839	-4.810
15.238	435.006	-4.808
15.246	435.178	-4.805
15.254	435.341	-4.803
15.263	435.510	-4.801
15.271	435.677	-4.799
15.279	435.847	-4.797
15.288	436.012	-4.794
15.296	436.179	-4.792
15.304	436.347	-4.790
15.313	436.514	-4.788
15.321	436.684	-4.786
15.329	436.851	-4.784
15.338	437.015	-4.781
15.346	437.189	-4.779
15.354	437.355	-4.776
15.363	437.524	-4.774
15.371	437.694	-4.773
15.379	437.864	-4.770
15.388	438.029	-4.768
15.396	438.197	-4.766
15.404	438.368	-4.764
15.413	438.535	-4.762
15.421	438.700	-4.760
15.429	438.867	-4.758
15.438	439.041	-4.756
15.446	439.206	-4.754
15.454	439.373	-4.751
15.463	439.541	-4.749
15.471	439.710	-4.747
15.479	439.874	-4.745
15.488	440.047	-4.743
15.496	440.211	-4.741
15.504	440.381	-4.739
15.513	440.550	-4.737
15.521	440.717	-4.735
15.529	440.883	-4.733
15.538	441.054	-4.731
15.546	441.218	-4.729
15.554	441.390	-4.727
15.563	441.553	-4.725
15.571	441.722	-4.722
15.579	441.892	-4.720
15.588	442.060	-4.718
15.596	442.227	-4.716
15.604	442.396	-4.714
15.613	442.561	-4.712
15.621	442.728	-4.709
15.629	442.896	-4.707
15.638	443.064	-4.705
15.646	443.232	-4.702
15.654	443.398	-4.700
15.663	443.566	-4.698
15.671	443.732	-4.695
15.679	443.904	-4.693
15.688	444.071	-4.690
15.696	444.236	-4.687
15.704	444.403	-4.685
15.713	444.573	-4.683
15.721	444.744	-4.681
15.729	444.908	-4.678
15.738	445.074	-4.676
15.746	445.243	-4.673
15.754	445.413	-4.672
15.763	445.582	-4.669
15.771	445.746	-4.667
15.779	445.915	-4.664
15.788	446.082	-4.662
15.796	446.249	-4.659
15.804	446.419	-4.656
15.813	446.584	-4.654
15.821	446.753	-4.651
15.829	446.922	-4.649
15.838	447.086	-4.646
15.846	447.258	-4.644
15.854	447.425	-4.641
15.863	447.591	-4.639
15.871	447.763	-4.637
15.879	447.925	-4.634
15.888	448.094	-4.632
15.896	448.261	-4.629
15.904	448.427	-4.626
15.913	448.596	-4.624
15.921	448.764	-4.621
15.929	448.934	-4.619
15.938	449.098	-4.616
15.946	449.268	-4.613
15.954	449.432	-4.610
15.963	449.599	-4.607
15.971	449.768	-4.604
15.979	449.936	-4.602
15.988	450.109	-4.599
15.996	450.272	-4.596
16.004	450.444	-4.594
16.013	450.608	-4.591
16.021	450.779	-4.588
16.029	450.944	-4.585
16.038	451.113	-4.583
16.046	451.279	-4.580
16.054	451.448	-4.578
16.063	451.617	-4.575
16.071	451.782	-4.572
16.079	451.946	-4.569
16.088	452.115	-4.566
16.096	452.286	-4.563
16.104	452.457	-4.560
16.113	452.618	-4.557
16.121	452.787	-4.554
16.129	452.958	-4.551
16.138	453.122	-4.548
16.146	453.289	-4.545
16.154	453.459	-4.542
16.163	453.626	-4.539
16.171	453.796	-4.536
16.179	453.963	-4.534
16.188	454.129	-4.530
16.196	454.298	-4.527
16.204	454.465	-4.523
16.213	454.631	-4.520
16.221	454.801	-4.516
16.229	454.966	-4.512
16.238	455.134	-4.509
16.246	455.300	-4.505
16.254	455.472	-4.502
16.263	455.639	-4.498
16.271	455.807	-4.494
16.279	455.973	-4.490
16.288	456.144	-4.486
16.296	456.313	-4.483
16.304	456.476	-4.480
16.313	456.646	-4.476
16.321	456.810	-4.473
16.329	456.981	-4.469
16.338	457.151	-4.466
16.346	457.314	-4.462
16.354	457.485	-4.459
16.363	457.651	-4.456
16.371	457.816	-4.453
16.379	457.984	-4.449
16.388	458.153	-4.445
16.396	458.317	-4.441
16.404	458.490	-4.437
16.413	458.661	-4.434
16.421	458.823	-4.430
16.429	458.989	-4.426
16.438	459.155	-4.422
16.446	459.329	-4.418
16.454	459.498	-4.414
16.463	459.661	-4.409
16.471	459.830	-4.406
16.479	459.993	-4.402
16.488	460.161	-4.398
16.496	460.330	-4.394
16.504	460.495	-4.390
16.513	460.667	-4.386
16.521	460.837	-4.382
16.529	461.005	-4.378
16.538	461.169	-4.375
16.546	461.339	-4.371
16.554	461.504	-4.367
16.563	461.675	-4.363
16.571	461.840	-4.358
16.579	462.009	-4.354
16.588	462.175	-4.350
16.596	462.344	-4.347
16.604	462.508	-4.342
16.613	462.678	-4.338
16.621	462.847	-4.334
16.629	463.013	-4.329
16.638	463.180	-4.325
16.646	463.353	-4.320
16.654	463.517	-4.316
16.663	463.685	-4.312
16.671	463.853	-4.307
16.679	464.025	-4.302
16.688	464.189	-4.298
16.696	464.358	-4.293
16.704	464.525	-4.289
16.713	464.694	-4.284
16.721	464.857	-4.280
16.729	465.031	-4.275
16.738	465.191	-4.270
16.746	465.364	-4.266
16.754	465.530	-4.262
16.763	465.700	-4.257
16.771	465.865	-4.253
16.779	466.035	-4.248
16.788	466.201	-4.243
16.796	466.371	-4.239
16.804	466.538	-4.234
16.813	466.707	-4.230
16.821	466.872	-4.226
16.829	467.042	-4.221
16.838	467.208	-4.217
16.846	467.376	-4.212
16.854	467.548	-4.207
16.863	467.710	-4.202
16.871	467.878	-4.198
16.879	468.052	-4.193
16.888	468.214	-4.188
16.896	468.383	-4.184
16.904	468.550	-4.179
16.913	468.717	-4.174
16.921	468.885	-4.170
16.929	469.052	-4.165
16.938	469.218	-4.161
16.946	469.388	-4.156
16.954	469.558	-4.152
16.963	469.722	-4.147
16.971	469.891	-4.143
16.979	470.060	-4.139
16.988	470.226	-4.135
16.996	470.397	-4.131
17.004	470.563	-4.127
17.013	470.729	-4.123
17.021	470.898	-4.118
17.029	471.068	-4.114
17.038	471.234	-4.111
17.046	471.402	-4.106
17.054	471.571	-4.102
17.063	471.739	-4.098
17.071	471.904	-4.094
17.079	472.073	-4.089
17.088	472.238	-4.085
17.096	472.408	-4.081
17.104	472.577	-4.078
17.113	472.744	-4.074
17.121	472.916	-4.069
17.129	473.080	-4.065
17.138	473.249	-4.062
17.146	473.421	-4.058
17.154	473.585	-4.054
17.163	473.749	-4.050
17.171	473.917	-4.046
17.179	474.086	-4.042
17.188	474.259	-4.039
17.196	474.427	-4.035
17.204	474.592	-4.032
17.213	474.756	-4.028
17.221	474.928	-4.024
17.229	475.096	-4.021
17.238	475.264	-4.017
17.246	475.426	-4.013
17.254	475.595	-4.010
17.263	475.763	-4.006
17.271	475.926	-4.003
17.279	476.098	-3.999
17.288	476.266	-3.996
17.296	476.432	-3.992
17.304	476.601	-3.989
17.313	476.769	-3.985
17.321	476.931	-3.982
17.329	477.101	-3.978
17.338	477.270	-3.975
17.346	477.435	-3.972
17.354	477.607	-3.969
17.363	477.775	-3.966
17.371	477.935	-3.963
17.379	478.106	-3.960
17.388	478.273	-3.957
17.396	478.442	-3.954
17.404	478.608	-3.951
17.413	478.780	-3.949
17.421	478.946	-3.946
17.429	479.112	-3.942
17.438	479.277	-3.939
17.446	479.447	-3.936
17.454	479.614	-3.932
17.463	479.782	-3.929
17.471	479.951	-3.925
17.479	480.117	-3.921
17.488	480.286	-3.918
17.496	480.454	-3.914
17.504	480.623	-3.911
17.513	480.791	-3.907
17.521	480.955	-3.904
17.529	481.121	-3.901
17.538	481.292	-3.899
17.546	481.457	-3.895
17.554	481.624	-3.893
17.563	481.790	-3.890
17.571	481.962	-3.887
17.579	482.129	-3.885
17.588	482.299	-3.882
17.596	482.462	-3.879
17.604	482.629	-3.876
17.613	482.795	-3.873
17.621	482.964	-3.870
17.629	483.131	-3.868
17.638	483.308	-3.865
17.646	483.469	-3.862
17.654	483.636	-3.859
17.663	483.803	-3.857
17.671	483.970	-3.855
17.679	484.140	-3.852
17.688	484.305	-3.849
17.696	484.473	-3.847
17.704	484.643	-3.844
17.713	484.808	-3.841
17.721	484.976	-3.839
17.729	485.144	-3.836
17.738	485.313	-3.834
17.746	485.480	-3.831
17.754	485.646	-3.828
17.763	485.813	-3.826
17.771	485.983	-3.824
17.779	486.147	-3.822
17.788	486.315	-3.820
17.796	486.481	-3.818
17.804	486.650	-3.815
17.813	486.817	-3.813
17.821	486.985	-3.812
17.829	487.150	-3.809
17.838	487.319	-3.807
17.846	487.493	-3.805
17.854	487.653	-3.803
17.863	487.823	-3.801
17.871	487.988	-3.798
17.879	488.156	-3.797
17.888	488.327	-3.795
17.896	488.492	-3.792
17.904	488.658	-3.790
17.913	488.825	-3.788
17.921	488.997	-3.786
17.929	489.161	-3.784
17.938	489.328	-3.783
17.946	489.498	-3.781
17.954	489.666	-3.779
17.963	489.831	-3.777
17.971	490.000	-3.776
17.979	490.167	-3.774
17.988	490.332	-3.773
17.996	490.502	-3.771
18.004	490.672	-3.769
18.013	490.838	-3.767
18.021	491.009	-3.765
18.029	491.168	-3.763
18.038	491.338	-3.761
18.046	491.509	-3.759
18.054	491.680	-3.757
18.063	491.845	-3.755
18.071	492.012	-3.752
18.079	492.175	-3.750
18.088	492.345	-3.748
18.096	492.517	-3.747
18.104	492.679	-3.745
18.113	492.849	-3.743
18.121	493.015	-3.740
18.129	493.181	-3.739
18.138	493.346	-3.737
18.146	493.517	-3.736
18.154	493.684	-3.734
18.163	493.852	-3.732
18.171	494.022	-3.731
18.179	494.186	-3.730
18.188	494.357	-3.728
18.196	494.524	-3.727
18.204	494.693	-3.725
18.213	494.858	-3.724
18.221	495.027	-3.723
18.229	495.193	-3.721
18.238	495.360	-3.720
18.246	495.526	-3.719
18.254	495.694	-3.718
18.263	495.861	-3.716
18.271	496.025	-3.715
18.279	496.197	-3.714
18.288	496.366	-3.713
18.296	496.533	-3.711
18.304	496.698	-3.710
18.313	496.869	-3.708
18.321	497.034	-3.707
18.329	497.205	-3.706
18.338	497.366	-3.704
18.346	497.531	-3.703
18.354	497.701	-3.702
18.363	497.867	-3.700
18.371	498.035	-3.699
18.379	498.200	-3.697
18.388	498.372	-3.695
18.396	498.541	-3.693
18.404	498.705	-3.692
18.413	498.871	-3.690
18.421	499.039	-3.688
18.429	499.208	-3.686
18.438	499.371	-3.684
18.446	499.539	-3.682
18.454	499.701	-3.680
18.463	499.878	-3.679
18.471	500.045	-3.677
18.479	500.214	-3.676
18.488	500.380	-3.674
18.496	500.546	-3.673
18.504	500.712	-3.672
18.513	500.881	-3.670
18.521	501.048	-3.669
18.529	501.217	-3.668
18.538	501.383	-3.667
18.546	501.547	-3.666
18.554	501.713	-3.665
18.563	501.883	-3.664
18.571	502.052	-3.663
18.579	502.212	-3.661
18.588	502.385	-3.661
18.596	502.553	-3.660
18.604	502.723	-3.660
18.613	502.889	-3.659
18.621	503.058	-3.657
18.629	503.226	-3.656
18.638	503.397	-3.656
18.646	503.557	-3.655
18.654	503.728	-3.654
18.663	503.896	-3.653
18.671	504.063	-3.653
18.679	504.231	-3.652
18.688	504.396	-3.651
18.696	504.562	-3.650
18.704	504.729	-3.649
18.713	504.898	-3.648
18.721	505.064	-3.647
18.729	505.231	-3.646
18.738	505.398	-3.645
18.746	505.568	-3.644
18.754	505.736	-3.643
18.763	505.902	-3.642
18.771	506.069	-3.642
18.779	506.236	-3.642
18.788	506.402	-3.641
18.796	506.572	-3.641
18.804	506.739	-3.641
18.813	506.906	-3.641
18.821	507.075	-3.641
18.829	507.242	-3.641
18.838	507.408	-3.640
18.846	507.574	-3.639
18.854	507.747	-3.639
18.863	507.915	-3.638
18.871	508.079	-3.638
18.879	508.250	-3.637
18.888	508.413	-3.636
18.896	508.581	-3.635
18.904	508.752	-3.635
18.913	508.915	-3.634
18.921	509.087	-3.633
18.929	509.255	-3.632
18.938	509.419	-3.631
18.946	509.588	-3.631
18.954	509.754	-3.631
18.963	509.918	-3.630
18.971	510.087	-3.630
18.979	510.261	-3.630
18.988	510.427	-3.629
18.996	510.594	-3.628
19.004	510.761	-3.628
19.013	510.927	-3.628
19.021	511.097	-3.627
19.029	511.266	-3.627
19.038	511.432	-3.626
19.046	511.596	-3.625
19.054	511.763	-3.625
19.063	511.930	-3.624
19.071	512.102	-3.624
19.079	512.269	-3.623
19.088	512.436	-3.623
19.096	512.605	-3.622
19.104	512.772	-3.622
19.113	512.938	-3.622
19.121	513.105	-3.622
19.129	513.274	-3.622
19.138	513.443	-3.622
19.146	513.609	-3.622
19.154	513.776	-3.623
19.163	513.942	-3.623
19.171	514.110	-3.623
19.179	514.282	-3.623
19.188	514.447	-3.623
19.196	514.616	-3.623
19.204	514.781	-3.623
19.213	514.948	-3.623
19.221	515.115	-3.623
19.229	515.284	-3.622
19.238	515.453	-3.622
19.246	515.621	-3.623
19.254	515.789	-3.623
19.263	515.958	-3.624
19.271	516.125	-3.624
19.279	516.294	-3.625
19.288	516.461	-3.625
19.296	516.628	-3.626
19.304	516.794	-3.627
19.313	516.962	-3.628
19.321	517.126	-3.629
19.329	517.298	-3.630
19.338	517.466	-3.631
19.346	517.631	-3.632
19.354	517.799	-3.634
19.363	517.964	-3.635
19.371	518.133	-3.636
19.379	518.300	-3.637
19.388	518.469	-3.638
19.396	518.634	-3.639
19.404	518.803	-3.640
19.413	518.971	-3.641
19.421	519.139	-3.642
19.429	519.306	-3.642
19.438	519.473	-3.643
19.446	519.640	-3.643
19.454	519.807	-3.643
19.463	519.976	-3.644
19.471	520.146	-3.644
19.479	520.311	-3.644
19.488	520.479	-3.644
19.496	520.647	-3.645
19.504	520.814	-3.645
19.513	520.981	-3.646
19.521	521.149	-3.646
19.529	521.314	-3.647
19.538	521.482	-3.647
19.546	521.650	-3.648
19.554	521.819	-3.650
19.563	521.982	-3.651
19.571	522.149	-3.653
19.579	522.318	-3.654
19.588	522.487	-3.656
19.596	522.654	-3.658
19.604	522.824	-3.660
19.613	522.988	-3.662
19.621	523.154	-3.664
19.629	523.316	-3.667
19.638	523.489	-3.668
19.646	523.657	-3.670
19.654	523.823	-3.671
19.663	523.994	-3.674
19.671	524.161	-3.675
19.679	524.328	-3.677
19.688	524.494	-3.678
19.696	524.660	-3.680
19.704	524.827	-3.681
19.713	524.994	-3.683
19.721	525.160	-3.686
19.729	525.330	-3.689
19.738	525.500	-3.692
19.746	525.662	-3.694
19.754	525.831	-3.698
19.763	526.000	-3.701
19.771	526.167	-3.704
19.779	526.335	-3.707
19.788	526.505	-3.710
19.796	526.671	-3.712
19.804	526.836	-3.713
19.813	527.004	-3.714
19.821	527.174	-3.716
19.829	527.345	-3.717
19.838	527.511	-3.719
19.846	527.679	-3.720
19.854	527.846	-3.720
19.863	528.010	-3.719
19.871	528.181	-3.719
19.879	528.346	-3.720
19.888	528.516	-3.720
19.896	528.677	-3.722
19.904	528.846	-3.723
19.913	529.015	-3.725
19.921	529.181	-3.725
19.929	529.348	-3.727
19.938	529.519	-3.729
19.946	529.684	-3.732
19.954	529.854	-3.734
19.963	530.019	-3.736
19.971	530.186	-3.739
19.979	530.347	-3.741
19.988	530.520	-3.743
19.996	530.685	-3.744
20.004	530.847	-3.746
20.013	531.024	-3.748
20.021	531.188	-3.749
20.029	531.352	-3.751
20.038	531.521	-3.754
20.046	531.692	-3.756
20.054	531.862	-3.759
20.063	532.024	-3.761
20.071	532.191	-3.763
20.079	532.365	-3.765
20.088	532.528	-3.767
20.096	532.692	-3.769
20.104	532.866	-3.772
20.113	533.032	-3.775
20.121	533.196	-3.777
20.129	533.372	-3.780
20.138	533.533	-3.781
20.146	533.702	-3.783
20.154	533.868	-3.785
20.163	534.038	-3.788
20.171	534.205	-3.791
20.179	534.375	-3.793
20.188	534.538	-3.796
20.196	534.707	-3.798
20.204	534.874	-3.800
20.213	535.034	-3.803
20.221	535.207	-3.806
20.229	535.376	-3.810
20.238	535.540	-3.813
20.246	535.712	-3.816
20.254	535.880	-3.818
20.263	536.048	-3.821
20.271	536.214	-3.824
20.279	536.378	-3.828
20.288	536.549	-3.831
20.296	536.716	-3.835
20.304	536.884	-3.839
20.313	537.050	-3.842
20.321	537.218	-3.845
20.329	537.383	-3.849
20.338	537.552	-3.853
20.346	537.715	-3.857
20.354	537.886	-3.861
20.363	538.053	-3.865
20.371	538.220	-3.869
20.379	538.392	-3.873
20.388	538.556	-3.877
20.396	538.722	-3.882
20.404	538.885	-3.885
20.413	539.053	-3.889
20.421	539.224	-3.893
20.429	539.392	-3.896
20.438	539.558	-3.900
20.446	539.722	-3.904
20.454	539.891	-3.907
20.463	540.060	-3.911
20.471	540.227	-3.915
20.479	540.394	-3.919
20.488	540.560	-3.923
20.496	540.727	-3.928
20.504	540.893	-3.932
20.513	541.062	-3.937
20.521	541.228	-3.941
20.529	541.395	-3.945
20.538	541.563	-3.950
20.546	541.729	-3.954
20.554	541.896	-3.959
20.563	542.061	-3.964
20.571	542.230	-3.969
20.579	542.393	-3.974
20.588	542.564	-3.978
20.596	542.728	-3.983
20.604	542.897	-3.989
20.613	543.063	-3.993
20.621	543.234	-3.999
20.629	543.399	-4.004
20.638	543.564	-4.009
20.646	543.731	-4.014
20.654	543.897	-4.019
20.663	544.060	-4.024
20.671	544.227	-4.030
20.679	544.391	-4.035
20.688	544.559	-4.040
20.696	544.725	-4.046
20.704	544.893	-4.051
20.713	545.067	-4.057
20.721	545.235	-4.063
20.729	545.399	-4.068
20.738	545.569	-4.074
20.746	545.732	-4.080
20.754	545.901	-4.086
20.763	546.072	-4.092
20.771	546.235	-4.098
20.779	546.402	-4.104
20.788	546.571	-4.110
20.796	546.737	-4.116
20.804	546.906	-4.123
20.813	547.072	-4.129
20.821	547.238	-4.136
20.829	547.403	-4.142
20.838	547.569	-4.149
20.846	547.735	-4.156
20.854	547.907	-4.164
20.863	548.070	-4.171
20.871	548.236	-4.178
20.879	548.402	-4.186
20.888	548.569	-4.194
20.896	548.737	-4.201
20.904	548.906	-4.210
20.913	549.070	-4.219
20.921	549.236	-4.228
20.929	549.406	-4.237
20.938	549.571	-4.246
20.946	549.736	-4.255
20.954	549.909	-4.265
20.963	550.073	-4.274
20.971	550.239	-4.283
20.979	550.403	-4.293
20.988	550.570	-4.301
20.996	550.733	-4.310
21.004	550.894	-4.319
21.013	551.064	-4.329
21.021	551.239	-4.338
21.029	551.402	-4.347
21.038	551.572	-4.357
21.046	551.740	-4.366
21.054	551.906	-4.376
21.063	552.073	-4.386
21.071	552.241	-4.396
21.079	552.405	-4.406
21.088	552.570	-4.416
21.096	552.737	-4.426
21.104	552.903	-4.436
21.113	553.071	-4.447
21.121	553.232	-4.457
21.129	553.403	-4.467
21.138	553.570	-4.478
21.146	553.737	-4.488
21.154	553.903	-4.499
21.163	554.070	-4.510
21.171	554.237	-4.521
21.179	554.403	-4.533
21.188	554.568	-4.545
21.196	554.735	-4.557
21.204	554.904	-4.569
21.213	555.068	-4.581
21.221	555.238	-4.594
21.229	555.403	-4.607
21.238	555.567	-4.620
21.246	555.734	-4.633
21.254	555.901	-4.647
21.263	556.068	-4.661
21.271	556.232	-4.675
21.279	556.400	-4.689
21.288	556.568	-4.704
21.296	556.734	-4.719
21.304	556.897	-4.733
21.313	557.066	-4.747
21.321	557.234	-4.762
21.329	557.398	-4.777
21.338	557.563	-4.792
21.346	557.728	-4.807
21.354	557.897	-4.823
21.363	558.062	-4.838
21.371	558.227	-4.854
21.379	558.396	-4.870
21.388	558.563	-4.886
21.396	558.732	-4.902
21.404	558.898	-4.919
21.413	559.060	-4.935
21.421	559.227	-4.952
21.429	559.394	-4.968
21.438	559.559	-4.985
21.446	559.723	-5.002
21.454	559.891	-5.018
21.463	560.058	-5.036
21.471	560.225	-5.054
21.479	560.389	-5.072
21.488	560.556	-5.091
21.496	560.729	-5.109
21.504	560.891	-5.128
21.513	561.054	-5.147
21.521	561.225	-5.167
21.529	561.385	-5.187
21.538	561.553	-5.207
21.546	561.721	-5.227
21.554	561.885	-5.246
21.563	562.053	-5.266
21.571	562.220	-5.286
21.579	562.382	-5.307
21.588	562.551	-5.328
21.596	562.720	-5.348
21.604	562.885	-5.369
21.613	563.047	-5.389
21.621	563.213	-5.409
21.629	563.382	-5.431
21.638	563.548	-5.452
21.646	563.717	-5.473
21.654	563.882	-5.495
21.663	564.042	-5.517
21.671	564.211	-5.538
21.679	564.380	-5.560
21.688	564.545	-5.583
21.696	564.712	-5.606
21.704	564.879	-5.629
21.713	565.047	-5.652
21.721	565.208	-5.675
21.729	565.377	-5.699
21.738	565.543	-5.722
21.746	565.708	-5.746
21.754	565.873	-5.770
21.763	566.041	-5.794
21.771	566.206	-5.817
21.779	566.376	-5.841
21.788	566.538	-5.865
21.796	566.707	-5.889
21.804	566.871	-5.913
21.813	567.035	-5.938
21.821	567.202	-5.962
21.829	567.368	-5.987
21.838	567.534	-6.012
21.846	567.702	-6.037
21.854	567.867	-6.062
21.863	568.035	-6.088
21.871	568.200	-6.113
21.879	568.363	-6.139
21.888	568.533	-6.164
21.896	568.700	-6.190
21.904	568.864	-6.215
21.913	569.026	-6.241
21.921	569.193	-6.267
21.929	569.362	-6.293
21.938	569.524	-6.319
21.946	569.692	-6.345
21.954	569.857	-6.371
21.963	570.024	-6.398
21.971	570.187	-6.424
21.979	570.352	-6.451
21.988	570.514	-6.477
21.996	570.688	-6.504
22.004	570.850	-6.530
22.013	571.022	-6.557
22.021	571.184	-6.584
22.029	571.353	-6.611
22.038	571.515	-6.638
22.046	571.679	-6.665
22.054	571.849	-6.693
22.063	572.013	-6.721
22.071	572.176	-6.748
22.079	572.343	-6.776
22.088	572.507	-6.804
22.096	572.676	-6.831
22.104	572.840	-6.858
22.113	573.006	-6.885
22.121	573.175	-6.912
22.129	573.339	-6.938
22.138	573.505	-6.963
22.146	573.671	-6.988
22.154	573.837	-7.013
22.163	574.001	-7.039
22.171	574.169	-7.065
22.179	574.334	-7.090
22.188	574.496	-7.115
22.196	574.663	-7.141
22.204	574.831	-7.167
22.213	574.998	-7.194
22.221	575.162	-7.221
22.229	575.328	-7.248
22.238	575.493	-7.275
22.246	575.661	-7.303
22.254	575.828	-7.330
22.263	575.988	-7.357
22.271	576.157	-7.386
22.279	576.324	-7.413
22.288	576.486	-7.440
22.296	576.655	-7.468
22.304	576.822	-7.495
22.313	576.986	-7.522
22.321	577.154	-7.549
22.329	577.314	-7.576
22.338	577.483	-7.603
22.346	577.647	-7.629
22.354	577.813	-7.655
22.363	577.983	-7.681
22.371	578.146	-7.707
22.379	578.309	-7.733
22.388	578.479	-7.759
22.396	578.644	-7.784
22.404	578.812	-7.810
22.413	578.977	-7.835
22.421	579.141	-7.861
22.429	579.311	-7.886
22.438	579.480	-7.912
22.446	579.643	-7.937
22.454	579.807	-7.962
22.463	579.976	-7.988
22.471	580.138	-8.013
22.479	580.304	-8.038
22.488	580.471	-8.063
22.496	580.640	-8.088
22.504	580.801	-8.111
22.513	580.972	-8.136
22.521	581.132	-8.160
22.529	581.300	-8.183
22.538	581.464	-8.206
22.546	581.631	-8.229
22.554	581.795	-8.251
22.563	581.965	-8.274
22.571	582.132	-8.297
22.579	582.293	-8.320
22.588	582.461	-8.343
22.596	582.631	-8.366
22.604	582.796	-8.388
22.613	582.961	-8.410
22.621	583.131	-8.432
22.629	583.292	-8.454
22.638	583.461	-8.476
22.646	583.624	-8.497
22.654	583.792	-8.518
22.663	583.959	-8.539
22.671	584.124	-8.560
22.679	584.292	-8.581
22.688	584.459	-8.601
22.696	584.624	-8.621
22.704	584.790	-8.641
22.713	584.957	-8.660
22.721	585.123	-8.680
22.729	585.289	-8.699
22.738	585.455	-8.719
22.746	585.621	-8.738
22.754	585.784	-8.757
22.763	585.950	-8.775
22.771	586.116	-8.794
22.779	586.285	-8.813
22.788	586.453	-8.831
22.796	586.617	-8.849
22.804	586.785	-8.867
22.813	586.952	-8.884
22.821	587.118	-8.902
22.829	587.282	-8.919
22.838	587.449	-8.935
22.846	587.617	-8.952
22.854	587.787	-8.968
22.863	587.951	-8.985
22.871	588.115	-9.001
22.879	588.283	-9.017
22.888	588.451	-9.034
22.896	588.618	-9.050
22.904	588.783	-9.065
22.913	588.949	-9.080
22.921	589.112	-9.095
22.929	589.285	-9.110
22.938	589.447	-9.124
22.946	589.615	-9.138
22.954	589.785	-9.152
22.963	589.952	-9.165
22.971	590.117	-9.179
22.979	590.281	-9.192
22.988	590.451	-9.205
22.996	590.614	-9.218
23.004	590.780	-9.230
23.013	590.945	-9.243
23.021	591.113	-9.256
23.029	591.281	-9.268
23.038	591.443	-9.280
23.046	591.602	-9.292
23.054	591.771	-9.303
23.063	591.939	-9.314
23.071	592.109	-9.325
23.079	592.274	-9.335
23.088	592.453	-9.346
23.096	592.619	-9.356
23.104	592.787	-9.367
23.113	592.949	-9.378
23.121	593.118	-9.387
23.129	593.282	-9.396
23.138	593.448	-9.405
23.146	593.621	-9.415
23.154	593.785	-9.424
23.163	593.950	-9.433
23.171	594.118	-9.443
23.179	594.284	-9.452
23.188	594.454	-9.460
23.196	594.620	-9.467
23.204	594.784	-9.475
23.213	594.954	-9.483
23.221	595.121	-9.490
23.229	595.293	-9.497
23.238	595.457	-9.504
23.246	595.623	-9.509
23.254	595.792	-9.515
23.263	595.957	-9.520
23.271	596.125	-9.526
23.279	596.287	-9.530
23.288	596.456	-9.534
23.296	596.624	-9.538
23.304	596.788	-9.543
23.313	596.960	-9.548
23.321	597.125	-9.552
23.329	597.294	-9.556
23.338	597.464	-9.558
23.346	597.630	-9.560
23.354	597.796	-9.562
23.363	597.963	-9.564
23.371	598.135	-9.565
23.379	598.297	-9.566
23.388	598.467	-9.565
23.396	598.632	-9.564
23.404	598.799	-9.562
23.413	598.967	-9.560
23.421	599.138	-9.558
23.429	599.303	-9.555
23.438	599.472	-9.550
23.446	599.639	-9.545
23.454	599.810	-9.540
23.463	599.976	-9.534
23.471	600.143	-9.527
23.479	600.313	-9.520
23.488	600.479	-9.511
23.496	600.647	-9.501
23.504	600.818	-9.491
23.513	600.984	-9.480
23.521	601.149	-9.468
23.529	601.316	-9.456
23.538	601.487	-9.442
23.546	601.658	-9.426
23.554	601.827	-9.410
23.563	601.996	-9.392
23.571	602.162	-9.374
23.579	602.329	-9.353
23.588	602.502	-9.332
23.596	602.670	-9.309
23.604	602.843	-9.285
23.613	603.007	-9.259
23.621	603.177	-9.232
23.629	603.345	-9.203
23.638	603.514	-9.172
23.646	603.682	-9.139
23.654	603.854	-9.105
23.663	604.024	-9.068
23.671	604.193	-9.029
23.679	604.367	-8.989
23.688	604.535	-8.946
23.696	604.708	-8.901
23.704	604.879	-8.853
23.713	605.053	-8.803
23.721	605.219	-8.750
23.729	605.389	-8.695
23.738	605.561	-8.637
23.746	605.731	-8.576
23.754	605.905	-8.511
23.763	606.076	-8.443
23.771	606.248	-8.372
23.779	606.423	-8.298
23.788	606.594	-8.221
23.796	606.765	-8.140
23.804	606.936	-8.055
23.813	607.113	-7.966
23.821	607.283	-7.873
23.829	607.460	-7.776
23.838	607.633	-7.676
23.846	607.808	-7.571
23.854	607.984	-7.460
23.863	608.157	-7.345
23.871	608.331	-7.225
23.879	608.504	-7.100
23.888	608.683	-6.969
23.896	608.858	-6.834
23.904	609.030	-6.693
23.913	609.208	-6.546
23.921	609.384	-6.392
23.929	609.564	-6.232
23.938	609.742	-6.067
23.946	609.917	-5.895
23.954	610.095	-5.716
23.963	610.279	-5.531
23.971	610.459	-5.338
23.979	610.633	-5.138
23.988	610.812	-4.931
23.996	610.994	-4.716
24.004	611.174	-4.493
24.013	611.354	-4.263
24.021	611.537	-4.025
24.029	611.721	-3.779
24.038	611.901	-3.524
24.046	612.082	-3.260
24.054	612.265	-2.989
24.063	612.453	-2.708
24.071	612.640	-2.418
24.079	612.821	-2.119
24.088	613.004	-1.813
24.096	613.188	-1.497
24.104	613.378	-1.172
24.113	613.563	-0.838
24.121	613.749	-0.495
24.129	613.937	-0.143
24.138	614.126	0.217
24.146	614.321	0.585
24.154	614.505	0.964
24.163	614.697	1.351
24.171	614.882	1.747
24.179	615.076	2.150
24.188	615.263	2.561
24.196	615.458	2.979
24.204	615.646	3.404
24.213	615.835	3.836
24.221	616.026	4.274
24.229	616.222	4.719
24.238	616.409	5.168
24.246	616.603	5.623
24.254	616.796	6.083
24.263	616.985	6.549
24.271	617.181	7.020
24.279	617.369	7.495
24.288	617.566	7.976
24.296	617.754	8.460
24.304	617.951	8.950
24.313	618.143	9.443
24.321	618.340	9.939
24.329	618.531	10.440
24.338	618.726	10.944
24.346	618.921	11.450
24.354	619.113	11.960
24.363	619.308	12.473
24.371	619.502	12.988
24.379	619.694	13.505
24.388	619.888	14.024
24.396	620.087	14.544
24.404	620.281	15.067
24.413	620.472	15.590
24.421	620.671	16.114
24.429	620.865	16.639
24.438	621.056	17.164
24.446	621.250	17.689
24.454	621.445	18.214
24.463	621.640	18.738
24.471	621.830	19.262
24.479	622.024	19.784
24.488	622.221	20.304
24.496	622.414	20.820
24.504	622.604	21.334
24.513	622.800	21.843
24.521	622.988	22.347
24.529	623.180	22.845
24.538	623.368	23.337
24.546	623.558	23.821
24.554	623.747	24.297
24.563	623.934	24.764
24.571	624.124	25.222
24.579	624.314	25.670
24.588	624.496	26.106
24.596	624.686	26.531
24.604	624.870	26.944
24.613	625.053	27.344
24.621	625.235	27.730
24.629	625.421	28.103
24.638	625.607	28.461
24.646	625.785	28.805
24.654	625.964	29.133
24.663	626.145	29.446
24.671	626.326	29.746
24.679	626.506	30.031
24.688	626.684	30.302
24.696	626.862	30.559
24.704	627.039	30.803
24.713	627.215	31.033
24.721	627.390	31.249
24.729	627.566	31.452
24.738	627.739	31.644
24.746	627.919	31.822
24.754	628.087	31.988
24.763	628.261	32.141
24.771	628.433	32.283
24.779	628.605	32.413
24.788	628.776	32.531
24.796	628.947	32.638
24.804	629.117	32.733
24.813	629.286	32.817
24.821	629.455	32.890
24.829	629.623	32.952
24.838	629.789	33.002
24.846	629.963	33.043
24.854	630.131	33.072
24.863	630.293	33.090
24.871	630.458	33.098
24.879	630.624	33.096
24.888	630.786	33.086
24.896	630.958	33.065
24.904	631.120	33.034
24.913	631.282	32.994
24.921	631.444	32.946
24.929	631.609	32.889
24.938	631.769	32.823
24.946	631.930	32.748
24.954	632.094	32.665
24.963	632.259	32.573
24.971	632.412	32.472
24.979	632.574	32.364
24.988	632.735	32.249
24.996	632.893	32.126
25.004	633.056	31.995
25.013	633.216	31.857
25.021	633.372	31.713
25.029	633.529	31.561
25.038	633.688	31.402
25.046	633.843	31.237
25.054	634.001	31.065
25.063	634.160	30.887
25.071	634.319	30.702
25.079	634.473	30.511
25.088	634.628	30.312
25.096	634.782	30.108
25.104	634.940	29.897
25.113	635.090	29.680
25.121	635.243	29.456
25.129	635.399	29.226
25.138	635.555	28.990
25.146	635.708	28.748
25.154	635.861	28.500
25.163	636.011	28.246
25.171	636.168	27.986
25.179	636.320	27.722
25.188	636.470	27.454
25.196	636.623	27.180
25.204	636.773	26.901
25.213	636.924	26.619
25.221	637.077	26.333
25.229	637.227	26.044
25.238	637.378	25.750
25.246	637.532	25.455
25.254	637.684	25.157
25.263	637.836	24.855
25.271	637.983	24.550
25.279	638.136	24.243
25.288	638.288	23.934
25.296	638.436	23.623
25.304	638.583	23.309
25.313	638.737	22.993
25.321	638.888	22.676
25.329	639.039	22.357
25.338	639.189	22.037
25.346	639.340	21.715
25.354	639.490	21.393
25.363	639.639	21.070
25.371	639.788	20.745
25.379	639.939	20.421
25.388	640.089	20.096
25.396	640.242	19.772
25.404	640.389	19.448
25.413	640.541	19.124
25.421	640.692	18.800
25.429	640.841	18.476
25.438	640.990	18.153
25.446	641.135	17.832
25.454	641.291	17.512
25.463	641.440	17.192
25.471	641.593	16.873
25.479	641.745	16.556
25.488	641.896	16.240
25.496	642.043	15.925
25.504	642.197	15.612
25.513	642.347	15.301
25.521	642.497	14.992
25.529	642.648	14.683
25.538	642.801	14.377
25.546	642.951	14.073
25.554	643.102	13.770
25.563	643.259	13.470
25.571	643.409	13.172
25.579	643.558	12.876
25.588	643.710	12.582
25.596	643.863	12.290
25.604	644.014	12.002
25.613	644.166	11.715
25.621	644.320	11.431
25.629	644.473	11.150
25.638	644.627	10.871
25.646	644.779	10.596
25.654	644.931	10.322
25.663	645.086	10.052
25.671	645.238	9.785
25.679	645.395	9.520
25.688	645.549	9.257
25.696	645.701	8.997
25.704	645.855	8.740
25.713	646.004	8.485
25.721	646.162	8.233
25.729	646.317	7.983
25.738	646.470	7.736
25.746	646.626	7.491
25.754	646.781	7.248
25.763	646.936	7.007
25.771	647.094	6.769
25.779	647.247	6.532
25.788	647.397	6.298
25.796	647.555	6.066
25.804	647.712	5.836
25.813	647.870	5.610
25.821	648.021	5.385
25.829	648.181	5.164
25.838	648.334	4.944
25.846	648.490	4.727
25.854	648.648	4.512
25.863	648.803	4.300
25.871	648.960	4.091
25.879	649.117	3.883
25.888	649.274	3.678
25.896	649.429	3.475
25.904	649.584	3.274
25.913	649.743	3.076
25.921	649.899	2.880
25.929	650.056	2.686
25.938	650.212	2.495
25.946	650.372	2.306
25.954	650.528	2.119
25.963	650.688	1.935
25.971	650.848	1.752
25.979	651.002	1.572
25.988	651.162	1.394
25.996	651.322	1.218
26.004	651.481	1.044
26.013	651.636	0.872
26.021	651.793	0.701
26.029	651.955	0.533
26.038	652.114	0.366
26.046	652.270	0.202
26.054	652.431	0.039
26.063	652.591	-0.122
26.071	652.751	-0.281
26.079	652.909	-0.438
26.088	653.068	-0.593
26.096	653.225	-0.746
26.104	653.386	-0.897
26.113	653.544	-1.046
26.121	653.709	-1.194
26.129	653.864	-1.339
26.138	654.024	-1.483
26.146	654.188	-1.626
26.154	654.347	-1.766
26.163	654.509	-1.905
26.171	654.668	-2.042
26.179	654.831	-2.177
26.188	654.986	-2.310
26.196	655.150	-2.441
26.204	655.311	-2.571
26.213	655.475	-2.699
26.221	655.632	-2.826
26.229	655.792	-2.950
26.238	655.953	-3.073
26.246	656.115	-3.194
26.254	656.278	-3.314
26.263	656.440	-3.432
26.271	656.603	-3.549
26.279	656.762	-3.665
26.288	656.924	-3.779
26.296	657.087	-3.890
26.304	657.250	-4.001
26.313	657.408	-4.110
26.321	657.575	-4.220
26.329	657.737	-4.327
26.338	657.898	-4.433
26.346	658.059	-4.538
26.354	658.223	-4.640
26.363	658.388	-4.741
26.371	658.547	-4.841
26.379	658.713	-4.941
26.388	658.872	-5.038
26.396	659.037	-5.134
26.404	659.200	-5.228
26.413	659.364	-5.322
26.421	659.530	-5.414
26.429	659.691	-5.504
26.438	659.848	-5.593
26.446	660.016	-5.683
26.454	660.180	-5.771
26.463	660.340	-5.857
26.471	660.501	-5.942
26.479	660.668	-6.026
26.488	660.828	-6.109
26.496	660.992	-6.191
26.504	661.158	-6.271
26.513	661.324	-6.350
26.521	661.487	-6.428
26.529	661.650	-6.505
26.538	661.813	-6.581
26.546	661.977	-6.656
26.554	662.145	-6.730
26.563	662.308	-6.803
26.571	662.469	-6.875
26.579	662.638	-6.947
26.588	662.802	-7.017
26.596	662.967	-7.087
26.604	663.130	-7.154
26.613	663.289	-7.221
26.621	663.455	-7.288
26.629	663.625	-7.353
26.638	663.788	-7.417
26.646	663.949	-7.481
26.654	664.113	-7.544
26.663	664.285	-7.606
26.671	664.447	-7.667
26.679	664.616	-7.727
26.688	664.781	-7.787
26.696	664.945	-7.846
26.704	665.107	-7.904
26.713	665.271	-7.961
26.721	665.437	-8.017
26.729	665.602	-8.072
26.738	665.771	-8.126
26.746	665.936	-8.180
26.754	666.101	-8.234
26.763	666.269	-8.286
26.771	666.431	-8.337
26.779	666.595	-8.387
26.788	666.761	-8.437
26.796	666.928	-8.486
26.804	667.092	-8.535
26.813	667.259	-8.582
26.821	667.423	-8.628
26.829	667.589	-8.675
26.838	667.758	-8.720
26.846	667.922	-8.765
26.854	668.088	-8.810
26.863	668.259	-8.855
26.871	668.416	-8.899
26.879	668.585	-8.942
26.888	668.752	-8.985
26.896	668.917	-9.028
26.904	669.081	-9.070
26.913	669.249	-9.111
26.921	669.410	-9.152
26.929	669.579	-9.192
26.938	669.744	-9.232
26.946	669.910	-9.271
26.954	670.075	-9.310
26.963	670.244	-9.347
26.971	670.406	-9.384
26.979	670.574	-9.421
26.988	670.740	-9.458
26.996	670.907	-9.494
27.004	671.075	-9.530
27.013	671.240	-9.566
27.021	671.404	-9.600
27.029	671.576	-9.635
27.038	671.735	-9.669
27.046	671.906	-9.703
27.054	672.073	-9.736
27.063	672.239	-9.769
27.071	672.407	-9.802
27.079	672.573	-9.834
27.088	672.740	-9.867
27.096	672.905	-9.899
27.104	673.072	-9.930
27.113	673.234	-9.961
27.121	673.402	-9.992
27.129	673.563	-10.022
27.138	673.735	-10.053
27.146	673.899	-10.082
27.154	674.065	-10.112
27.163	674.234	-10.141
27.171	674.399	-10.169
27.179	674.571	-10.198
27.188	674.735	-10.227
27.196	674.898	-10.256
27.204	675.065	-10.285
27.213	675.233	-10.314
27.221	675.398	-10.342
27.229	675.565	-10.370
27.238	675.728	-10.398
27.246	675.892	-10.426
27.254	676.059	-10.454
27.263	676.231	-10.482
27.271	676.400	-10.509
27.279	676.567	-10.536
27.288	676.733	-10.562
27.296	676.900	-10.588
27.304	677.065	-10.615
27.313	677.233	-10.642
27.321	677.395	-10.669
27.329	677.564	-10.696
27.338	677.727	-10.722
27.346	677.894	-10.749
27.354	678.063	-10.775
27.363	678.230	-10.802
27.371	678.393	-10.829
27.379	678.562	-10.854
27.388	678.729	-10.879
27.396	678.897	-10.905
27.404	679.057	-10.931
27.413	679.227	-10.957
27.421	679.391	-10.982
27.429	679.561	-11.008
27.438	679.722	-11.034
27.446	679.890	-11.061
27.454	680.057	-11.086
27.463	680.223	-11.112
27.471	680.386	-11.137
27.479	680.557	-11.163
27.488	680.721	-11.188
27.496	680.891	-11.214
27.504	681.053	-11.240
27.513	681.221	-11.265
27.521	681.387	-11.290
27.529	681.551	-11.314
27.538	681.718	-11.339
27.546	681.888	-11.364
27.554	682.054	-11.388
27.563	682.225	-11.413
27.571	682.387	-11.438
27.579	682.551	-11.463
27.588	682.717	-11.488
27.596	682.884	-11.512
27.604	683.049	-11.537
27.613	683.214	-11.562
27.621	683.384	-11.588
27.629	683.547	-11.613
27.638	683.713	-11.639
27.646	683.883	-11.664
27.654	684.050	-11.688
27.663	684.217	-11.712
27.671	684.381	-11.737
27.679	684.545	-11.763
27.688	684.711	-11.788
27.696	684.882	-11.812
27.704	685.043	-11.837
27.713	685.212	-11.862
27.721	685.378	-11.887
27.729	685.543	-11.911
27.738	685.708	-11.936
27.746	685.872	-11.960
27.754	686.041	-11.984
27.763	686.208	-12.008
27.771	686.377	-12.032
27.779	686.539	-12.056
27.788	686.707	-12.081
27.796	686.874	-12.104
27.804	687.040	-12.128
27.813	687.208	-12.152
27.821	687.376	-12.176
27.829	687.539	-12.200
27.838	687.704	-12.224
27.846	687.870	-12.248
27.854	688.039	-12.272
27.863	688.204	-12.295
27.871	688.372	-12.318
27.879	688.537	-12.341
27.888	688.703	-12.365
27.896	688.874	-12.388
27.904	689.037	-12.411
27.913	689.203	-12.433
27.921	689.368	-12.454
27.929	689.537	-12.477
27.938	689.702	-12.500
27.946	689.870	-12.523
27.954	690.037	-12.546
27.963	690.202	-12.568
27.971	690.368	-12.591
27.979	690.536	-12.614
27.988	690.702	-12.637
27.996	690.864	-12.660
28.004	691.032	-12.683
28.013	691.199	-12.705
28.021	691.369	-12.728
28.029	691.538	-12.750
28.038	691.701	-12.771
28.046	691.865	-12.794
28.054	692.034	-12.815
28.063	692.202	-12.837
28.071	692.369	-12.858
28.079	692.532	-12.881
28.088	692.698	-12.903
28.096	692.866	-12.925
28.104	693.029	-12.947
28.113	693.194	-12.969
28.121	693.365	-12.991
28.129	693.530	-13.012
28.138	693.694	-13.034
28.146	693.860	-13.057
28.154	694.027	-13.078
28.163	694.194	-13.100
28.171	694.364	-13.121
28.179	694.532	-13.142
28.188	694.694	-13.164
28.196	694.858	-13.186
28.204	695.028	-13.207
28.213	695.193	-13.228
28.221	695.357	-13.249
28.229	695.529	-13.270
28.238	695.690	-13.291
28.246	695.858	-13.312
28.254	696.024	-13.332
28.263	696.190	-13.352
28.271	696.356	-13.372
28.279	696.524	-13.393
28.288	696.691	-13.413
28.296	696.857	-13.434
28.304	697.025	-13.455
28.313	697.189	-13.475
28.321	697.354	-13.495
28.329	697.525	-13.517
28.338	697.690	-13.538
28.346	697.857	-13.558
28.354	698.022	-13.579
28.363	698.189	-13.599
28.371	698.356	-13.620
28.379	698.521	-13.640
28.388	698.689	-13.661
28.396	698.853	-13.681
28.404	699.021	-13.701
28.413	699.185	-13.721
28.421	699.352	-13.741
28.429	699.516	-13.761
28.438	699.684	-13.780
28.446	699.851	-13.799
28.454	700.015	-13.818
28.463	700.182	-13.838
28.471	700.353	-13.857
28.479	700.520	-13.876
28.488	700.684	-13.896
28.496	700.853	-13.917
28.504	701.015	-13.936
28.513	701.186	-13.956
28.521	701.353	-13.976
28.529	701.518	-13.996
28.538	701.684	-14.017
28.546	701.852	-14.037
28.554	702.017	-14.057
28.563	702.182	-14.077
28.571	702.350	-14.097
28.579	702.512	-14.116
28.588	702.679	-14.136
28.596	702.846	-14.156
28.604	703.011	-14.176
28.613	703.177	-14.197
28.621	703.346	-14.217
28.629	703.512	-14.237
28.638	703.680	-14.257
28.646	703.846	-14.278
28.654	704.015	-14.299
28.663	704.178	-14.318
28.671	704.340	-14.339
28.679	704.512	-14.360
28.688	704.676	-14.380
28.696	704.842	-14.400
28.704	705.008	-14.421
28.713	705.179	-14.442
28.721	705.341	-14.463
28.729	705.508	-14.484
28.738	705.674	-14.505
28.746	705.839	-14.526
28.754	706.007	-14.547
28.763	706.173	-14.569
28.771	706.341	-14.591
28.779	706.504	-14.613
28.788	706.670	-14.635
28.796	706.833	-14.657
28.804	707.004	-14.679
28.813	707.172	-14.701
28.821	707.338	-14.722
28.829	707.504	-14.745
28.838	707.668	-14.768
28.846	707.834	-14.790
28.854	708.000	-14.811
28.863	708.167	-14.834
28.871	708.333	-14.856
28.879	708.501	-14.878
28.888	708.666	-14.901
28.896	708.836	-14.924
28.904	708.996	-14.947
28.913	709.166	-14.970
28.921	709.329	-14.992
28.929	709.491	-15.015
28.938	709.663	-15.038
28.946	709.832	-15.060
28.954	709.994	-15.083
28.963	710.161	-15.106
28.971	710.326	-15.129
28.979	710.493	-15.151
28.988	710.661	-15.174
28.996	710.828	-15.198
29.004	710.993	-15.221
29.013	711.158	-15.245
29.021	711.325	-15.269
29.029	711.493	-15.294
29.038	711.657	-15.318
29.046	711.824	-15.341
29.054	711.990	-15.365
29.063	712.154	-15.389
29.071	712.325	-15.413
29.079	712.491	-15.437
29.088	712.657	-15.460
29.096	712.822	-15.484
29.104	712.988	-15.507
29.113	713.154	-15.531
29.121	713.319	-15.555
29.129	713.488	-15.579
29.138	713.653	-15.603
29.146	713.817	-15.627
29.154	713.989	-15.652
29.163	714.154	-15.676
29.171	714.318	-15.700
29.179	714.485	-15.725
29.188	714.652	-15.750
29.196	714.818	-15.776
29.204	714.986	-15.801
29.213	715.152	-15.826
29.221	715.316	-15.852
29.229	715.483	-15.877
29.238	715.649	-15.903
29.246	715.815	-15.929
29.254	715.979	-15.954
29.263	716.149	-15.980
29.271	716.313	-16.005
29.279	716.480	-16.030
29.288	716.646	-16.056
29.296	716.812	-16.082
29.304	716.979	-16.108
29.313	717.145	-16.134
29.321	717.311	-16.161
29.329	717.476	-16.187
29.338	717.647	-16.214
29.346	717.811	-16.241
29.354	717.980	-16.269
29.363	718.144	-16.295
29.371	718.310	-16.322
29.379	718.475	-16.349
29.388	718.641	-16.376
29.396	718.812	-16.403
29.404	718.974	-16.430
29.413	719.139	-16.458
29.421	719.304	-16.484
29.429	719.474	-16.511
29.438	719.638	-16.538
29.446	719.803	-16.565
29.454	719.970	-16.593
29.463	720.137	-16.620
29.471	720.304	-16.647
29.479	720.468	-16.675
29.488	720.637	-16.703
29.496	720.805	-16.730
29.504	720.969	-16.759
29.513	721.136	-16.787
29.521	721.303	-16.816
29.529	721.468	-16.844
29.538	721.634	-16.872
29.546	721.798	-16.901
29.554	721.964	-16.929
29.563	722.133	-16.958
29.571	722.295	-16.985
29.579	722.466	-17.014
29.588	722.629	-17.043
29.596	722.796	-17.071
29.604	722.964	-17.099
29.613	723.127	-17.128
29.621	723.296	-17.157
29.629	723.461	-17.185
29.638	723.625	-17.213
29.646	723.794	-17.242
29.654	723.960	-17.271
29.663	724.121	-17.299
29.671	724.289	-17.328
29.679	724.460	-17.357
29.688	724.621	-17.385
29.696	724.791	-17.414
29.704	724.955	-17.442
29.713	725.119	-17.471
29.721	725.285	-17.500
29.729	725.448	-17.529
29.738	725.619	-17.557
29.746	725.788	-17.586
29.754	725.953	-17.614
29.763	726.116	-17.642
29.771	726.278	-17.670
29.779	726.449	-17.699
29.788	726.616	-17.726
29.796	726.782	-17.754
29.804	726.946	-17.781
29.813	727.115	-17.808
29.821	727.281	-17.836
29.829	727.447	-17.865
29.838	727.615	-17.893
29.846	727.776	-17.920
29.854	727.943	-17.948
29.863	728.115	-17.976
29.871	728.277	-18.003
29.879	728.439	-18.031
29.888	728.607	-18.060
29.896	728.773	-18.088
29.904	728.938	-18.115
29.913	729.106	-18.143
29.921	729.270	-18.169
29.929	729.435	-18.197
29.938	729.604	-18.224
29.946	729.768	-18.251
29.954	729.933	-18.279
29.963	730.100	-18.306
29.971	730.267	-18.333
29.979	730.435	-18.359
29.988	730.603	-18.385
29.996	730.766	-18.412
30.004	730.932	-18.438
30.013	731.096	-18.464
30.021	731.261	-18.490
30.029	731.429	-18.516
30.038	731.595	-18.541
30.046	731.759	-18.566
30.054	731.928	-18.592
30.063	732.095	-18.617
30.071	732.258	-18.642
30.079	732.425	-18.667
30.088	732.593	-18.691
30.096	732.755	-18.715
30.104	732.927	-18.739
30.113	733.090	-18.762
30.121	733.251	-18.786
30.129	733.421	-18.810
30.138	733.590	-18.832
30.146	733.757	-18.856
30.154	733.923	-18.880
30.163	734.089	-18.903
30.171	734.254	-18.927
30.179	734.419	-18.950
30.188	734.588	-18.973
30.196	734.755	-18.996
30.204	734.918	-19.018
30.213	735.087	-19.041
30.221	735.251	-19.064
30.229	735.418	-19.085
30.238	735.582	-19.107
30.246	735.750	-19.128
30.254	735.917	-19.148
30.263	736.083	-19.168
30.271	736.252	-19.188
30.279	736.417	-19.208
30.288	736.582	-19.228
30.296	736.751	-19.247
30.304	736.916	-19.265
30.313	737.083	-19.284
30.321	737.248	-19.302
30.329	737.417	-19.320
30.338	737.582	-19.338
30.346	737.750	-19.356
30.354	737.914	-19.374
30.363	738.082	-19.392
30.371	738.248	-19.409
30.379	738.416	-19.427
30.388	738.582	-19.444
30.396	738.753	-19.461
30.404	738.919	-19.478
30.413	739.085	-19.496
30.421	739.248	-19.513
30.429	739.416	-19.530
30.438	739.585	-19.547
30.446	739.747	-19.562
30.454	739.912	-19.579
30.463	740.082	-19.595
30.471	740.240	-19.610
30.479	740.418	-19.626
30.488	740.586	-19.641
30.496	740.749	-19.656
30.504	740.916	-19.670
30.513	741.083	-19.685
30.521	741.251	-19.700
30.529	741.417	-19.715
30.538	741.584	-19.730
30.546	741.756	-19.745
30.554	741.919	-19.761
30.563	742.088	-19.775
30.571	742.249	-19.790
30.579	742.419	-19.805
30.588	742.585	-19.819
30.596	742.754	-19.833
30.604	742.920	-19.848
30.613	743.089	-19.861
30.621	743.255	-19.875
30.629	743.422	-19.889
30.638	743.585	-19.902
30.646	743.752	-19.916
30.654	743.920	-19.929
30.663	744.086	-19.942
30.671	744.253	-19.955
30.679	744.424	-19.969
30.688	744.591	-19.982
30.696	744.758	-19.996
30.704	744.926	-20.008
30.713	745.092	-20.021
30.721	745.255	-20.035
30.729	745.423	-20.049
30.738	745.592	-20.063
30.746	745.756	-20.077
30.754	745.921	-20.091
30.763	746.089	-20.105
30.771	746.257	-20.118
30.779	746.420	-20.132
30.788	746.588	-20.145
30.796	746.755	-20.159
30.804	746.921	-20.172
30.813	747.091	-20.185
30.821	747.255	-20.198
30.829	747.426	-20.212
30.838	747.588	-20.225
30.846	747.756	-20.239
30.854	747.928	-20.254
30.863	748.099	-20.269
30.871	748.255	-20.283
30.879	748.428	-20.299
30.888	748.591	-20.313
30.896	748.759	-20.327
30.904	748.926	-20.342
30.913	749.091	-20.357
30.921	749.262	-20.371
30.929	749.425	-20.387
30.938	749.593	-20.402
30.946	749.760	-20.418
30.954	749.927	-20.433
30.963	750.092	-20.449
30.971	750.259	-20.466
30.979	750.426	-20.482
30.988	750.593	-20.499
30.996	750.758	-20.516
31.004	750.923	-20.533
31.013	751.091	-20.550
31.021	751.258	-20.567
31.029	751.425	-20.584
31.038	751.589	-20.602
31.046	751.755	-20.620
31.054	751.923	-20.638
31.063	752.090	-20.656
31.071	752.255	-20.674
31.079	752.421	-20.694
31.088	752.591	-20.714
31.096	752.756	-20.735
31.104	752.924	-20.756
31.113	753.090	-20.778
31.121	753.261	-20.799
31.129	753.423	-20.821
31.138	753.587	-20.843
31.146	753.755	-20.866
31.154	753.923	-20.888
31.163	754.088	-20.911
31.171	754.255	-20.934
31.179	754.423	-20.956
31.188	754.587	-20.979
31.196	754.752	-21.001
31.204	754.918	-21.024
31.213	755.088	-21.046
31.221	755.252	-21.069
31.229	755.423	-21.093
31.238	755.585	-21.117
31.246	755.750	-21.142
31.254	755.916	-21.166
31.263	756.089	-21.192
31.271	756.253	-21.217
31.279	756.419	-21.241
31.288	756.583	-21.267
31.296	756.750	-21.294
31.304	756.913	-21.320
31.313	757.083	-21.346
31.321	757.251	-21.372
31.329	757.416	-21.398
31.338	757.581	-21.424
31.346	757.749	-21.451
31.354	757.909	-21.479
31.363	758.083	-21.506
31.371	758.248	-21.533
31.379	758.417	-21.561
31.388	758.575	-21.590
31.396	758.744	-21.620
31.404	758.909	-21.649
31.413	759.076	-21.679
31.421	759.242	-21.708
31.429	759.410	-21.738
31.438	759.575	-21.769
31.446	759.741	-21.801
31.454	759.908	-21.833
31.463	760.073	-21.865
31.471	760.240	-21.896
31.479	760.402	-21.927
31.488	760.569	-21.958
31.496	760.735	-21.990
31.504	760.905	-22.023
31.513	761.067	-22.055
31.521	761.236	-22.089
31.529	761.400	-22.123
31.538	761.568	-22.159
31.546	761.728	-22.194
31.554	761.898	-22.231
31.563	762.069	-22.269
31.571	762.228	-22.307
31.579	762.395	-22.346
31.588	762.566	-22.385
31.596	762.726	-22.424
31.604	762.893	-22.464
31.613	763.059	-22.502
31.621	763.226	-22.541
31.629	763.392	-22.580
31.638	763.559	-22.621
31.646	763.722	-22.663
31.654	763.888	-22.704
31.663	764.054	-22.745
31.671	764.215	-22.788
31.679	764.382	-22.831
31.688	764.550	-22.873
31.696	764.717	-22.916
31.704	764.877	-22.959
31.713	765.047	-23.002
31.721	765.209	-23.044
31.729	765.374	-23.087
31.738	765.538	-23.129
31.746	765.708	-23.173
31.754	765.868	-23.216
31.763	766.036	-23.261
31.771	766.202	-23.307
31.779	766.368	-23.354
31.788	766.530	-23.401
31.796	766.695	-23.449
31.804	766.859	-23.497
31.813	767.023	-23.545
31.821	767.192	-23.595
31.829	767.357	-23.643
31.838	767.521	-23.692
31.846	767.685	-23.741
31.854	767.856	-23.790
31.863	768.019	-23.838
31.871	768.183	-23.886
31.879	768.347	-23.934
31.888	768.514	-23.983
31.896	768.678	-24.030
31.904	768.846	-24.079
31.913	769.007	-24.128
31.921	769.174	-24.177
31.929	769.340	-24.225
31.938	769.509	-24.275
31.946	769.675	-24.324
31.954	769.842	-24.374
31.963	770.005	-24.424
31.971	770.173	-24.474
31.979	770.336	-24.525
31.988	770.500	-24.575
31.996	770.668	-24.626
32.004	770.832	-24.677
32.013	770.998	-24.729
32.021	771.161	-24.779
32.029	771.327	-24.830
32.038	771.497	-24.881
32.046	771.662	-24.931
32.054	771.813	-24.981
32.063	771.988	-25.032
32.071	772.157	-25.082
32.079	772.323	-25.131
32.088	772.486	-25.181
32.096	772.656	-25.231
32.104	772.818	-25.281
32.113	772.979	-25.332
32.121	773.143	-25.383
32.129	773.309	-25.434
32.138	773.476	-25.483
32.146	773.640	-25.532
32.154	773.804	-25.582
32.163	773.968	-25.632
32.171	774.136	-25.682
32.179	774.299	-25.730
32.188	774.462	-25.779
32.196	774.630	-25.828
32.204	774.795	-25.876
32.213	774.962	-25.926
32.221	775.128	-25.978
32.229	775.294	-26.030
32.238	775.456	-26.082
32.246	775.621	-26.133
32.254	775.788	-26.185
32.263	775.954	-26.238
32.271	776.117	-26.289
32.279	776.285	-26.341
32.288	776.446	-26.392
32.296	776.613	-26.444
32.304	776.782	-26.494
32.313	776.946	-26.544
32.321	777.113	-26.594
32.329	777.276	-26.644
32.338	777.442	-26.694
32.346	777.608	-26.743
32.354	777.775	-26.792
32.363	777.940	-26.840
32.371	778.104	-26.887
32.379	778.269	-26.933
32.388	778.436	-26.979
32.396	778.597	-27.024
32.404	778.766	-27.069
32.413	778.931	-27.112
32.421	779.096	-27.154
32.429	779.265	-27.197
32.438	779.428	-27.238
32.446	779.592	-27.279
32.454	779.759	-27.319
32.463	779.925	-27.358
32.471	780.089	-27.396
32.479	780.259	-27.434
32.488	780.423	-27.472
32.496	780.586	-27.509
32.504	780.754	-27.546
32.513	780.918	-27.584
32.521	781.089	-27.621
32.529	781.251	-27.657
32.538	781.416	-27.693
32.546	781.582	-27.728
32.554	781.749	-27.764
32.563	781.916	-27.798
32.571	782.080	-27.831
32.579	782.251	-27.863
32.588	782.416	-27.896
32.596	782.583	-27.928
32.604	782.750	-27.959
32.613	782.914	-27.990
32.621	783.079	-28.021
32.629	783.243	-28.051
32.638	783.414	-28.082
32.646	783.581	-28.112
32.654	783.746	-28.143
32.663	783.911	-28.173
32.671	784.079	-28.203
32.679	784.243	-28.231
32.688	784.408	-28.260
32.696	784.579	-28.288
32.704	784.746	-28.316
32.713	784.914	-28.345
32.721	785.075	-28.376
32.729	785.244	-28.408
32.738	785.403	-28.440
32.746	785.573	-28.472
32.754	785.738	-28.504
32.763	785.907	-28.537
32.771	786.077	-28.570
32.779	786.240	-28.605
32.788	786.408	-28.640
32.796	786.569	-28.674
32.804	786.735	-28.707
32.813	786.904	-28.738
32.821	787.065	-28.768
32.829	787.236	-28.799
32.838	787.402	-28.830
32.846	787.568	-28.860
32.854	787.730	-28.891
32.863	787.905	-28.921
32.871	788.071	-28.949
32.879	788.231	-28.979
32.888	788.400	-29.008
32.896	788.566	-29.037
32.904	788.730	-29.065
32.913	788.895	-29.093
32.921	789.067	-29.121
32.929	789.231	-29.148
32.938	789.397	-29.175
32.946	789.565	-29.201
32.954	789.726	-29.227
32.963	789.893	-29.253
32.971	790.062	-29.278
32.979	790.228	-29.303
32.988	790.395	-29.328
32.996	790.562	-29.354
33.004	790.725	-29.380
33.013	790.892	-29.406
33.021	791.057	-29.430
33.029	791.226	-29.456
33.038	791.387	-29.481
33.046	791.559	-29.505
33.054	791.726	-29.530
33.063	791.894	-29.555
33.071	792.058	-29.580
33.079	792.223	-29.604
33.088	792.388	-29.628
33.096	792.557	-29.652
33.104	792.722	-29.676
33.113	792.892	-29.700
33.121	793.056	-29.725
33.129	793.221	-29.749
33.138	793.387	-29.774
33.146	793.556	-29.797
33.154	793.721	-29.820
33.163	793.886	-29.844
33.171	794.052	-29.868
33.179	794.213	-29.892
33.188	794.389	-29.916
33.196	794.552	-29.940
33.204	794.717	-29.964
33.213	794.886	-29.987
33.221	795.048	-30.010
33.229	795.218	-30.034
33.238	795.383	-30.058
33.246	795.551	-30.082
33.254	795.715	-30.106
33.263	795.879	-30.129
33.271	796.045	-30.153
33.279	796.211	-30.178
33.288	796.377	-30.201
33.296	796.546	-30.225
33.304	796.713	-30.250
33.313	796.878	-30.273
33.321	797.040	-30.297
33.329	797.206	-30.321
33.338	797.375	-30.345
33.346	797.545	-30.369
33.354	797.707	-30.392
33.363	797.873	-30.416
33.371	798.040	-30.440
33.379	798.204	-30.464
33.388	798.371	-30.488
33.396	798.541	-30.512
33.404	798.706	-30.536
33.413	798.874	-30.560
33.421	799.037	-30.585
33.429	799.204	-30.610
33.438	799.370	-30.634
33.446	799.537	-30.658
33.454	799.702	-30.681
33.463	799.871	-30.706
33.471	800.036	-30.730
33.479	800.201	-30.754
33.488	800.368	-30.778
33.496	800.531	-30.802
33.504	800.700	-30.827
33.513	800.868	-30.851
33.521	801.033	-30.875
33.529	801.198	-30.900
33.538	801.365	-30.925
33.546	801.532	-30.950
33.554	801.696	-30.975
33.563	801.866	-31.000
33.571	802.028	-31.024
33.579	802.195	-31.049
33.588	802.360	-31.074
33.596	802.527	-31.099
33.604	802.688	-31.123
33.613	802.856	-31.148
33.621	803.021	-31.172
33.629	803.186	-31.197
33.638	803.356	-31.223
33.646	803.522	-31.248
33.654	803.689	-31.274
33.663	803.859	-31.300
33.671	804.022	-31.326
33.679	804.185	-31.353
33.688	804.352	-31.379
33.696	804.519	-31.405
33.704	804.684	-31.431
33.713	804.853	-31.457
33.721	805.018	-31.484
33.729	805.184	-31.511
33.738	805.350	-31.538
33.746	805.518	-31.566
33.754	805.684	-31.593
33.763	805.847	-31.619
33.771	806.015	-31.647
33.779	806.180	-31.674
33.788	806.348	-31.703
33.796	806.513	-31.731
33.804	806.680	-31.759
33.813	806.846	-31.787
33.821	807.012	-31.816
33.829	807.176	-31.844
33.838	807.345	-31.873
33.846	807.512	-31.903
33.854	807.677	-31.933
33.863	807.844	-31.963
33.871	808.010	-31.993
33.879	808.177	-32.024
33.888	808.342	-32.054
33.896	808.510	-32.084
33.904	808.673	-32.114
33.913	808.840	-32.144
33.921	809.009	-32.174
33.929	809.172	-32.204
33.938	809.340	-32.234
33.946	809.504	-32.265
33.954	809.673	-32.296
33.963	809.838	-32.326
33.971	810.002	-32.357
33.979	810.171	-32.388
33.988	810.340	-32.420
33.996	810.500	-32.451
34.004	810.670	-32.484
34.013	810.838	-32.516
34.021	811.003	-32.547
34.029	811.167	-32.578
34.038	811.334	-32.611
34.046	811.502	-32.643
34.054	811.668	-32.675
34.063	811.830	-32.707
34.071	811.997	-32.740
34.079	812.164	-32.773
34.088	812.333	-32.806
34.096	812.460	-32.836
34.104	812.634	-32.870
34.113	812.796	-32.899
34.121	812.961	-32.927
34.129	813.128	-32.955
34.138	813.297	-32.984
34.146	813.466	-33.013
34.154	813.632	-33.042
34.163	813.797	-33.071
34.171	813.965	-33.099
34.179	814.132	-33.128
34.188	814.298	-33.157
34.196	814.462	-33.188
34.204	814.630	-33.222
34.213	814.798	-33.254
34.221	814.960	-33.286
34.229	815.127	-33.318
34.238	815.298	-33.349
34.246	815.464	-33.380
34.254	815.628	-33.412
34.263	815.795	-33.444
34.271	815.966	-33.475
34.279	816.129	-33.507
34.288	816.295	-33.539
34.296	816.458	-33.571
34.304	816.628	-33.603
34.313	816.798	-33.636
34.321	816.962	-33.669
34.329	817.126	-33.702
34.338	817.297	-33.736
34.346	817.463	-33.769
34.354	817.629	-33.803
34.363	817.812	-33.839
34.371	817.998	-33.874
34.379	818.160	-33.909
34.388	818.329	-33.948
34.396	818.496	-33.988
34.404	818.660	-34.028
34.413	818.826	-34.067
34.421	818.988	-34.106
34.429	819.159	-34.146
34.438	819.325	-34.185
34.446	819.489	-34.225
34.454	819.657	-34.266
34.463	819.821	-34.306
34.471	819.988	-34.343
34.479	820.154	-34.381
34.488	820.325	-34.419
34.496	820.486	-34.457
34.504	820.654	-34.497
34.513	820.817	-34.536
34.521	820.983	-34.577
34.529	821.147	-34.616
34.538	821.315	-34.656
34.546	821.478	-34.694
34.554	821.649	-34.734
34.563	821.811	-34.774
34.571	821.978	-34.814
34.579	822.143	-34.854
34.588	822.306	-34.893
34.596	822.476	-34.933
34.604	822.641	-34.972
34.613	822.802	-35.013
34.621	822.970	-35.053
34.629	823.138	-35.094
34.638	823.300	-35.133
34.646	823.468	-35.173
34.654	823.629	-35.212
34.663	823.797	-35.253
34.671	823.959	-35.292
34.679	824.131	-35.332
34.688	824.294	-35.372
34.696	824.460	-35.411
34.704	824.626	-35.451
34.713	824.792	-35.492
34.721	824.957	-35.532
34.729	825.122	-35.572
34.738	825.287	-35.612
34.746	825.457	-35.653
34.754	825.621	-35.693
34.763	825.789	-35.734
34.771	825.951	-35.774
34.779	826.116	-35.815
34.788	826.284	-35.855
34.796	826.449	-35.895
34.804	826.615	-35.936
34.813	826.776	-35.976
34.821	826.941	-36.017
34.829	827.105	-36.058
34.838	827.272	-36.098
34.846	827.441	-36.137
34.854	827.603	-36.177
34.863	827.769	-36.217
34.871	827.933	-36.257
34.879	828.098	-36.297
34.888	828.264	-36.336
34.896	828.432	-36.375
34.904	828.596	-36.414
34.913	828.758	-36.453
34.921	828.926	-36.493
34.929	829.094	-36.534
34.938	829.254	-36.574
34.946	829.421	-36.615
34.954	829.587	-36.655
34.963	829.755	-36.695
34.971	829.917	-36.736
34.979	830.087	-36.778
34.988	830.251	-36.818
34.996	830.416	-36.859
35.004	830.580	-36.899
35.013	830.747	-36.940
35.021	830.914	-36.981
35.029	831.080	-37.021
35.038	831.243	-37.062
35.046	831.411	-37.103
35.054	831.574	-37.144
35.063	831.740	-37.184
35.071	831.905	-37.225
35.079	832.075	-37.266
35.088	832.239	-37.307
35.096	832.408	-37.348
35.104	832.572	-37.388
35.113	832.738	-37.429
35.121	832.903	-37.470
35.129	833.069	-37.511
35.138	833.234	-37.552
35.146	833.401	-37.592
35.154	833.564	-37.633
35.163	833.732	-37.675
35.171	833.896	-37.716
35.179	834.060	-37.757
35.188	834.224	-37.798
35.196	834.388	-37.838
35.204	834.552	-37.878
35.213	834.718	-37.919
35.221	834.885	-37.960
35.229	835.048	-37.999
35.238	835.213	-38.039
35.246	835.381	-38.079
35.254	835.547	-38.119
35.263	835.711	-38.159
35.271	835.879	-38.200
35.279	836.040	-38.240
35.288	836.212	-38.282
35.296	836.374	-38.323
35.304	836.543	-38.365
35.313	836.709	-38.407
35.321	836.875	-38.448
35.329	837.038	-38.489
35.338	837.203	-38.531
35.346	837.368	-38.574
35.354	837.539	-38.615
35.363	837.700	-38.656
35.371	837.866	-38.698
35.379	838.029	-38.740
35.388	838.190	-38.781
35.396	838.358	-38.823
35.404	838.528	-38.864
35.413	838.691	-38.905
35.421	838.860	-38.947
35.429	839.023	-38.988
35.438	839.187	-39.030
35.446	839.351	-39.072
35.454	839.521	-39.114
35.463	839.685	-39.155
35.471	839.853	-39.197
35.479	840.016	-39.240
35.488	840.181	-39.283
35.496	840.349	-39.326
35.504	840.508	-39.368
35.513	840.677	-39.412
35.521	840.842	-39.455
35.529	841.009	-39.497
35.538	841.175	-39.540
35.546	841.342	-39.584
35.554	841.503	-39.627
35.563	841.668	-39.671
35.571	841.835	-39.715
35.579	842.001	-39.758
35.588	842.168	-39.801
35.596	842.333	-39.845
35.604	842.500	-39.889
35.613	842.667	-39.933
35.621	842.833	-39.977
35.629	842.995	-40.022
35.638	843.165	-40.066
35.646	843.329	-40.110
35.654	843.482	-40.153
35.663	843.659	-40.199
35.671	843.825	-40.243
35.679	843.990	-40.287
35.688	844.155	-40.332
35.696	844.321	-40.377
35.704	844.487	-40.422
35.713	844.654	-40.468
35.721	844.817	-40.513
35.729	844.984	-40.560
35.738	845.146	-40.606
35.746	845.315	-40.652
35.754	845.480	-40.700
35.763	845.643	-40.748
35.771	845.808	-40.794
35.779	845.973	-40.841
35.788	846.146	-40.888
35.796	846.306	-40.934
35.804	846.471	-40.982
35.813	846.637	-41.029
35.821	846.800	-41.077
35.829	846.973	-41.126
35.838	847.138	-41.175
35.846	847.295	-41.225
35.854	847.463	-41.276
35.863	847.628	-41.326
35.871	847.794	-41.377
35.879	847.961	-41.428
35.888	848.126	-41.478
35.896	848.292	-41.528
35.904	848.457	-41.578
35.913	848.620	-41.628
35.921	848.787	-41.678
35.929	848.955	-41.727
35.938	849.117	-41.776
35.946	849.282	-41.827
35.954	849.450	-41.878
35.963	849.615	-41.928
35.971	849.779	-41.979
35.979	849.949	-42.030
35.988	850.109	-42.080
35.996	850.275	-42.131
36.004	850.444	-42.181
36.013	850.604	-42.232
36.021	850.771	-42.283
36.029	850.939	-42.335
36.038	851.105	-42.386
36.046	851.263	-42.439
36.054	851.431	-42.492
36.063	851.596	-42.544
36.071	851.760	-42.598
36.079	851.930	-42.652
36.088	852.092	-42.706
36.096	852.255	-42.761
36.104	852.422	-42.815
36.113	852.588	-42.870
36.121	852.754	-42.924
36.129	852.917	-42.978
36.138	853.084	-43.032
36.146	853.248	-43.087
36.154	853.414	-43.143
36.163	853.581	-43.197
36.171	853.744	-43.252
36.179	853.905	-43.307
36.188	854.070	-43.362
36.196	854.241	-43.418
36.204	854.404	-43.475
36.213	854.569	-43.531
36.221	854.734	-43.588
36.229	854.897	-43.644
36.238	855.063	-43.702
36.246	855.226	-43.759
36.254	855.394	-43.816
36.263	855.557	-43.873
36.271	855.724	-43.929
36.279	855.889	-43.985
36.288	856.053	-44.041
36.296	856.220	-44.098
36.304	856.383	-44.155
36.313	856.552	-44.213
36.321	856.713	-44.269
36.329	856.878	-44.326
36.338	857.039	-44.384
36.346	857.207	-44.443
36.354	857.373	-44.501
36.363	857.538	-44.562
36.371	857.705	-44.622
36.379	857.866	-44.682
36.388	858.036	-44.742
36.396	858.197	-44.802
36.404	858.361	-44.863
36.413	858.526	-44.923
36.421	858.694	-44.983
36.429	858.857	-45.043
36.438	859.022	-45.104
36.446	859.187	-45.165
36.454	859.352	-45.225
36.463	859.514	-45.287
36.471	859.683	-45.348
36.479	859.846	-45.409
36.488	860.012	-45.471
36.496	860.179	-45.533
36.504	860.346	-45.597
36.513	860.508	-45.661
36.521	860.669	-45.725
36.529	860.833	-45.790
36.538	860.999	-45.855
36.546	861.164	-45.920
36.554	861.330	-45.987
36.563	861.490	-46.053
36.571	861.659	-46.120
36.579	861.820	-46.185
36.588	861.988	-46.251
36.596	862.151	-46.316
36.604	862.319	-46.382
36.613	862.481	-46.449
36.621	862.648	-46.516
36.629	862.810	-46.584
36.638	862.974	-46.651
36.646	863.139	-46.719
36.654	863.305	-46.789
36.663	863.466	-46.859
36.671	863.628	-46.930
36.679	863.794	-47.000
36.688	863.961	-47.072
36.696	864.125	-47.143
36.704	864.291	-47.214
36.713	864.454	-47.286
36.721	864.616	-47.359
36.729	864.785	-47.432
36.738	864.947	-47.504
36.746	865.111	-47.577
36.754	865.277	-47.651
36.763	865.433	-47.724
36.771	865.606	-47.799
36.779	865.772	-47.872
36.788	865.932	-47.946
36.796	866.100	-48.022
36.804	866.264	-48.097
36.813	866.429	-48.173
36.821	866.592	-48.249
36.829	866.756	-48.326
36.838	866.920	-48.402
36.846	867.087	-48.479
36.854	867.249	-48.557
36.863	867.414	-48.637
36.871	867.577	-48.716
36.879	867.742	-48.793
36.888	867.909	-48.872
36.896	868.074	-48.951
36.904	868.241	-49.031
36.913	868.404	-49.111
36.921	868.569	-49.192
36.929	868.729	-49.273
36.938	868.893	-49.353
36.946	869.057	-49.434
36.954	869.218	-49.515
36.963	869.386	-49.598
36.971	869.550	-49.681
36.979	869.714	-49.765
36.988	869.881	-49.849
36.996	870.043	-49.934
37.004	870.203	-50.019
37.013	870.369	-50.105
37.021	870.535	-50.191
37.029	870.699	-50.279
37.038	870.860	-50.367
37.046	871.026	-50.454
37.054	871.189	-50.541
37.063	871.356	-50.629
37.071	871.520	-50.716
37.079	871.683	-50.805
37.088	871.846	-50.892
37.096	872.010	-50.981
37.104	872.175	-51.071
37.113	872.342	-51.160
37.121	872.500	-51.247
37.129	872.666	-51.337
37.138	872.831	-51.427
37.146	872.993	-51.516
37.154	873.153	-51.606
37.163	873.322	-51.696
37.171	873.486	-51.786
37.179	873.652	-51.875
37.188	873.815	-51.965
37.196	873.975	-52.056
37.204	874.141	-52.149
37.213	874.305	-52.241
37.221	874.472	-52.335
37.229	874.635	-52.431
37.238	874.798	-52.526
37.246	874.960	-52.622
37.254	875.124	-52.718
37.263	875.285	-52.814
37.271	875.454	-52.912
37.279	875.613	-53.009
37.288	875.778	-53.108
37.296	875.939	-53.206
37.304	876.105	-53.306
37.313	876.265	-53.405
37.321	876.434	-53.507
37.329	876.597	-53.609
37.338	876.759	-53.713
37.346	876.920	-53.819
37.354	877.083	-53.926
37.363	877.248	-54.035
37.371	877.412	-54.144
37.379	877.572	-54.254
37.388	877.737	-54.365
37.396	877.902	-54.477
37.404	878.064	-54.591
37.413	878.225	-54.706
37.421	878.388	-54.821
37.429	878.552	-54.936
37.438	878.715	-55.051
37.446	878.877	-55.169
37.454	879.038	-55.289
37.463	879.203	-55.411
37.471	879.367	-55.536
37.479	879.525	-55.664
37.488	879.685	-55.796
37.496	879.850	-55.931
37.504	880.010	-56.071
37.513	880.173	-56.217
37.521	880.334	-56.368
37.529	880.496	-56.523
37.538	880.651	-56.683
37.546	880.814	-56.847
37.554	880.977	-57.013
37.563	881.139	-57.182
37.571	881.301	-57.353
37.579	881.457	-57.526
37.588	881.622	-57.700
37.596	881.783	-57.873
37.604	881.946	-58.046
37.613	882.109	-58.216
37.621	882.268	-58.384
37.629	882.430	-58.552
37.638	882.592	-58.718
37.646	882.754	-58.881
37.654	882.915	-59.042
37.663	883.078	-59.201
37.671	883.239	-59.357
37.679	883.400	-59.510
37.688	883.566	-59.661
37.696	883.727	-59.810
37.704	883.894	-59.955
37.713	884.058	-60.096
37.721	884.217	-60.233
37.729	884.380	-60.367
37.738	884.544	-60.494
37.746	884.708	-60.615
37.754	884.873	-60.731
37.763	885.037	-60.839
37.771	885.204	-60.941
37.779	885.367	-61.037
37.788	885.534	-61.125
37.796	885.705	-61.206
37.804	885.868	-61.280
37.813	886.032	-61.345
37.821	886.202	-61.403
37.829	886.370	-61.453
37.838	886.534	-61.493
37.846	886.703	-61.523
37.854	886.870	-61.543
37.863	887.043	-61.552
37.871	887.213	-61.550
37.879	887.382	-61.538
37.888	887.555	-61.516
37.896	887.727	-61.483
37.904	887.895	-61.439
37.913	888.067	-61.388
37.921	888.236	-61.327
37.929	888.405	-61.258
37.938	888.572	-61.182
37.946	888.750	-61.101
37.954	888.920	-61.013
37.963	889.092	-60.918
37.971	889.264	-60.816
37.979	889.436	-60.709
37.988	889.610	-60.596
37.996	889.779	-60.478
38.004	889.951	-60.355
38.013	890.123	-60.226
38.021	890.297	-60.091
38.029	890.473	-59.953
38.038	890.644	-59.811
38.046	890.815	-59.666
38.054	890.992	-59.519
38.063	891.162	-59.368
38.071	891.335	-59.217
38.079	891.509	-59.065
38.088	891.682	-58.912
38.096	891.853	-58.762
38.104	892.028	-58.612
38.113	892.197	-58.462
38.121	892.365	-58.312
38.129	892.544	-58.165
38.138	892.715	-58.018
38.146	892.885	-57.873
38.154	893.054	-57.729
38.163	893.228	-57.585
38.171	893.398	-57.442
38.179	893.575	-57.301
38.188	893.747	-57.162
38.196	893.915	-57.025
38.204	894.087	-56.890
38.213	894.262	-56.755
38.221	894.432	-56.622
