2theta /stopnie	natê¿enie/jednostki umowne
 10.000      52.000
 10.010      52.000
 10.020      52.000
 10.030      52.000
 10.040      52.000
 10.050      52.000
 10.060      52.000
 10.070      52.000
 10.080      52.000
 10.090      52.000
 10.100      52.000
 10.110      52.000
 10.120      52.000
 10.130      52.000
 10.140      52.000
 10.150      52.000
 10.160      52.000
 10.170      52.000
 10.180      52.000
 10.190      52.000
 10.200      52.000
 10.210      52.000
 10.220      52.000
 10.230      52.000
 10.240      52.000
 10.250      52.000
 10.260      52.000
 10.270      52.000
 10.281      52.000
 10.291      52.000
 10.301      52.000
 10.311      52.000
 10.321      52.000
 10.331      52.000
 10.341      52.000
 10.351      52.000
 10.361      52.000
 10.371      52.000
 10.381      52.000
 10.391      52.000
 10.401      52.000
 10.411      52.000
 10.421      52.000
 10.431      52.000
 10.441      52.000
 10.451      52.000
 10.461      52.000
 10.471      52.000
 10.481      52.000
 10.491      52.000
 10.501      52.000
 10.511      52.000
 10.521      52.000
 10.531      52.000
 10.541      52.000
 10.551      52.000
 10.561      52.000
 10.571      52.000
 10.581      52.000
 10.591      52.000
 10.601      52.000
 10.611      52.000
 10.621      52.000
 10.631      52.000
 10.641      52.000
 10.651      52.000
 10.661      52.000
 10.671      52.000
 10.681      52.000
 10.691      52.000
 10.701      52.000
 10.711      52.000
 10.721      52.000
 10.731      52.000
 10.741      52.000
 10.751      52.000
 10.761      52.000
 10.771      52.000
 10.781      52.000
 10.791      52.000
 10.801      52.000
 10.811      52.000
 10.821      52.000
 10.831      52.000
 10.842      52.000
 10.852      52.000
 10.862      52.000
 10.872      52.000
 10.882      52.000
 10.892      52.000
 10.902      52.000
 10.912      52.000
 10.922      52.000
 10.932      52.000
 10.942      52.000
 10.952      52.000
 10.962      52.000
 10.972      52.000
 10.982      52.000
 10.992      52.000
 11.002      52.000
 11.012      52.000
 11.022      52.000
 11.032      52.000
 11.042      52.000
 11.052      52.000
 11.062      52.000
 11.072      52.000
 11.082      52.000
 11.092      52.000
 11.102      52.000
 11.112      52.000
 11.122      52.000
 11.132      52.000
 11.142      52.000
 11.152      52.000
 11.162      52.000
 11.172      52.000
 11.182      52.000
 11.192      52.000
 11.202      52.000
 11.212      52.000
 11.222      52.000
 11.232      52.000
 11.242      52.000
 11.252      52.000
 11.262      52.000
 11.272      52.000
 11.282      52.000
 11.292      52.000
 11.302      52.000
 11.312      52.000
 11.322      52.000
 11.332      52.000
 11.342      52.000
 11.352      52.000
 11.362      52.000
 11.372      52.000
 11.382      52.000
 11.393      52.000
 11.403      52.000
 11.413      52.000
 11.423      52.000
 11.433      52.000
 11.443      52.000
 11.453      52.000
 11.463      52.000
 11.473      52.000
 11.483      52.000
 11.493      52.000
 11.503      52.000
 11.513      52.000
 11.523      52.000
 11.533      52.000
 11.543      52.000
 11.553      52.000
 11.563      52.000
 11.573      52.000
 11.583      52.000
 11.593      52.000
 11.603      52.000
 11.613      52.000
 11.623      52.000
 11.633      52.000
 11.643      52.000
 11.653      52.000
 11.663      52.000
 11.673      52.000
 11.683      52.000
 11.693      52.000
 11.703      52.000
 11.713      52.000
 11.723      52.000
 11.733      52.000
 11.743      52.000
 11.753      52.000
 11.763      52.000
 11.773      52.000
 11.783      52.000
 11.793      52.000
 11.803      52.000
 11.813      52.000
 11.823      52.000
 11.833      52.000
 11.843      52.000
 11.853      52.000
 11.863      52.000
 11.873      52.000
 11.883      52.000
 11.893      52.000
 11.903      52.000
 11.913      52.000
 11.923      52.000
 11.933      52.000
 11.943      52.000
 11.954      52.000
 11.964      52.000
 11.974      52.000
 11.984      52.000
 11.994      52.000
 12.004      52.000
 12.014      52.000
 12.024      52.000
 12.034      52.000
 12.044      52.000
 12.054      52.000
 12.064      52.000
 12.074      52.000
 12.084      52.000
 12.094      52.000
 12.104      52.000
 12.114      52.000
 12.124      52.000
 12.134      52.000
 12.144      52.000
 12.154      52.000
 12.164      52.000
 12.174      52.000
 12.184      52.000
 12.194      52.000
 12.204      52.000
 12.214      52.000
 12.224      52.000
 12.234      52.000
 12.244      52.000
 12.254      52.000
 12.264      52.000
 12.274      52.000
 12.284      52.000
 12.294      52.000
 12.304      52.000
 12.314      52.000
 12.324      52.000
 12.334      52.000
 12.344      52.000
 12.354      52.000
 12.364      52.000
 12.374      52.000
 12.384      52.000
 12.394      52.000
 12.404      52.000
 12.414      52.000
 12.424      52.000
 12.434      52.000
 12.444      52.000
 12.454      52.000
 12.464      52.000
 12.474      52.000
 12.484      52.000
 12.494      52.000
 12.505      52.000
 12.515      52.000
 12.525      52.000
 12.535      52.000
 12.545      52.000
 12.555      52.000
 12.565      52.000
 12.575      52.000
 12.585      52.000
 12.595      52.000
 12.605      52.000
 12.615      52.000
 12.625      52.000
 12.635      52.000
 12.645      52.000
 12.655      52.000
 12.665      52.000
 12.675      52.000
 12.685      52.000
 12.695      52.000
 12.705      52.000
 12.715      52.000
 12.725      52.000
 12.735      52.000
 12.745      52.000
 12.755      52.000
 12.765      52.000
 12.775      52.000
 12.785      52.000
 12.795      52.000
 12.805      52.000
 12.815      52.000
 12.825      52.000
 12.835      52.000
 12.845      52.000
 12.855      52.000
 12.865      52.000
 12.875      52.000
 12.885      52.000
 12.895      52.000
 12.905      52.000
 12.915      52.000
 12.925      52.000
 12.935      52.000
 12.945      52.000
 12.955      52.000
 12.965      52.000
 12.975      52.000
 12.985      52.000
 12.995      52.000
 13.005      52.000
 13.015      52.000
 13.025      52.000
 13.035      52.000
 13.045      52.000
 13.055      52.000
 13.066      52.000
 13.076      52.000
 13.086      52.000
 13.096      52.000
 13.106      52.000
 13.116      52.000
 13.126      52.000
 13.136      52.000
 13.146      52.000
 13.156      52.000
 13.166      52.000
 13.176      52.000
 13.186      52.000
 13.196      52.000
 13.206      52.000
 13.216      52.000
 13.226      52.000
 13.236      52.000
 13.246      52.000
 13.256      52.000
 13.266      52.000
 13.276      52.000
 13.286      52.000
 13.296      52.000
 13.306      52.000
 13.316      52.000
 13.326      52.000
 13.336      52.000
 13.346      52.000
 13.356      52.000
 13.366      52.000
 13.376      52.000
 13.386      52.000
 13.396      52.000
 13.406      52.000
 13.416      52.000
 13.426      52.000
 13.436      52.000
 13.446      52.000
 13.456      52.000
 13.466      52.000
 13.476      52.000
 13.486      52.000
 13.496      52.000
 13.506      52.000
 13.516      52.000
 13.526      52.000
 13.536      52.000
 13.546      52.000
 13.556      52.000
 13.566      52.000
 13.576      52.000
 13.586      52.000
 13.596      52.000
 13.606      52.000
 13.616      52.000
 13.627      52.000
 13.637      52.000
 13.647      52.000
 13.657      52.000
 13.667      52.000
 13.677      52.000
 13.687      52.000
 13.697      52.000
 13.707      52.000
 13.717      52.000
 13.727      52.000
 13.737      52.000
 13.747      52.000
 13.757      52.000
 13.767      52.000
 13.777      52.000
 13.787      52.000
 13.797      52.000
 13.807      52.000
 13.817      52.000
 13.827      52.000
 13.837      52.000
 13.847      52.000
 13.857      52.000
 13.867      52.000
 13.877      52.000
 13.887      52.000
 13.897      52.000
 13.907      52.000
 13.917      52.000
 13.927      52.000
 13.937      52.000
 13.947      52.000
 13.957      52.000
 13.967      52.000
 13.977      52.000
 13.987      52.000
 13.997      52.000
 14.007      52.000
 14.017      52.000
 14.027      52.000
 14.037      52.000
 14.047      52.000
 14.057      52.000
 14.067      52.000
 14.077      52.000
 14.087      52.000
 14.097      52.000
 14.107      52.000
 14.117      52.000
 14.127      52.000
 14.137      52.000
 14.147      52.000
 14.157      52.000
 14.167      52.000
 14.178      52.000
 14.188      52.000
 14.198      52.000
 14.208      52.000
 14.218      52.000
 14.228      52.000
 14.238      52.000
 14.248      52.000
 14.258      52.000
 14.268      52.000
 14.278      52.000
 14.288      52.000
 14.298      52.000
 14.308      52.000
 14.318      52.000
 14.328      52.000
 14.338      52.000
 14.348      52.000
 14.358      52.000
 14.368      52.000
 14.378      52.000
 14.388      52.000
 14.398      52.000
 14.408      52.000
 14.418      52.000
 14.428      52.000
 14.438      52.000
 14.448      52.000
 14.458      52.000
 14.468      52.000
 14.478      52.000
 14.488      52.000
 14.498      52.000
 14.508      52.000
 14.518      52.000
 14.528      52.000
 14.538      52.000
 14.548      52.000
 14.558      52.000
 14.568      52.000
 14.578      52.000
 14.588      52.000
 14.598      52.000
 14.608      52.000
 14.618      52.000
 14.628      52.000
 14.638      52.000
 14.648      52.000
 14.658      52.000
 14.668      52.000
 14.678      52.000
 14.688      52.000
 14.698      52.000
 14.708      52.000
 14.718      52.000
 14.728      52.000
 14.739      52.000
 14.749      52.000
 14.759      52.000
 14.769      52.000
 14.779      52.000
 14.789      52.000
 14.799      52.000
 14.809      52.000
 14.819      52.000
 14.829      52.000
 14.839      52.000
 14.849      52.000
 14.859      52.000
 14.869      52.000
 14.879      52.000
 14.889      52.000
 14.899      52.000
 14.909      52.000
 14.919      52.000
 14.929      52.000
 14.939      52.000
 14.949      52.000
 14.959      52.000
 14.969      52.000
 14.979      52.000
 14.989      52.000
 14.999      52.000
 15.009      52.000
 15.019      52.000
 15.029      52.000
 15.039      52.000
 15.049      52.000
 15.059      52.000
 15.069      52.000
 15.079      52.000
 15.089      52.000
 15.099      52.000
 15.109      52.000
 15.119      52.000
 15.129      52.000
 15.139      52.000
 15.149      52.000
 15.159      52.000
 15.169      52.000
 15.179      52.000
 15.189      52.000
 15.199      52.000
 15.209      52.000
 15.219      52.000
 15.229      52.000
 15.239      52.000
 15.249      52.000
 15.259      52.000
 15.269      52.000
 15.279      52.000
 15.290      52.000
 15.300      52.000
 15.310      52.000
 15.320      52.000
 15.330      52.000
 15.340      52.000
 15.350      52.000
 15.360      52.000
 15.370      52.000
 15.380      52.000
 15.390      52.000
 15.400      52.000
 15.410      52.000
 15.420      52.000
 15.430      52.000
 15.440      52.000
 15.450      52.000
 15.460      52.000
 15.470      52.000
 15.480      52.000
 15.490      52.000
 15.500      52.000
 15.510      52.000
 15.520      52.000
 15.530      52.000
 15.540      52.000
 15.550      52.000
 15.560      52.000
 15.570      52.000
 15.580      52.000
 15.590      52.000
 15.600      52.000
 15.610      52.000
 15.620      52.000
 15.630      52.000
 15.640      52.000
 15.650      52.000
 15.660      52.000
 15.670      52.000
 15.680      52.000
 15.690      52.000
 15.700      52.000
 15.710      52.000
 15.720      52.000
 15.730      52.000
 15.740      52.000
 15.750      52.000
 15.760      52.000
 15.770      52.000
 15.780      52.000
 15.790      52.000
 15.800      52.000
 15.810      52.000
 15.820      52.000
 15.830      52.000
 15.840      52.000
 15.851      52.000
 15.861      52.000
 15.871      52.000
 15.881      52.000
 15.891      52.000
 15.901      52.000
 15.911      52.000
 15.921      52.000
 15.931      52.000
 15.941      52.000
 15.951      52.000
 15.961      52.000
 15.971      52.000
 15.981      52.000
 15.991      52.000
 16.001      52.000
 16.011      52.000
 16.021      52.000
 16.031      52.000
 16.041      52.000
 16.051      52.000
 16.061      52.000
 16.071      52.000
 16.081      52.000
 16.091      52.000
 16.101      52.000
 16.111      52.000
 16.121      52.000
 16.131      52.000
 16.141      52.000
 16.151      52.000
 16.161      52.000
 16.171      52.000
 16.181      52.000
 16.191      52.000
 16.201      52.000
 16.211      52.000
 16.221      52.000
 16.231      52.000
 16.241      52.000
 16.251      52.000
 16.261      52.000
 16.271      52.000
 16.281      52.000
 16.291      52.000
 16.301      52.000
 16.311      52.000
 16.321      52.000
 16.331      52.000
 16.341      52.000
 16.351      52.000
 16.361      52.000
 16.371      52.000
 16.381      52.000
 16.391      52.000
 16.402      52.000
 16.412      52.000
 16.422      52.000
 16.432      52.000
 16.442      52.000
 16.452      52.000
 16.462      52.000
 16.472      52.000
 16.482      52.000
 16.492      52.000
 16.502      52.000
 16.512      52.000
 16.522      52.000
 16.532      52.000
 16.542      52.000
 16.552      52.000
 16.562      52.000
 16.572      52.000
 16.582      52.000
 16.592      52.000
 16.602      52.000
 16.612      52.000
 16.622      52.000
 16.632      52.000
 16.642      52.000
 16.652      52.000
 16.662      52.000
 16.672      52.000
 16.682      52.000
 16.692      52.000
 16.702      52.000
 16.712      52.000
 16.722      52.000
 16.732      52.000
 16.742      52.000
 16.752      52.000
 16.762      52.000
 16.772      52.000
 16.782      52.000
 16.792      52.000
 16.802      52.000
 16.812      52.000
 16.822      52.000
 16.832      52.000
 16.842      52.000
 16.852      52.000
 16.862      52.000
 16.872      52.000
 16.882      52.000
 16.892      52.000
 16.902      52.000
 16.912      52.000
 16.922      52.000
 16.932      52.000
 16.942      52.000
 16.952      52.000
 16.963      52.000
 16.973      52.000
 16.983      52.000
 16.993      52.000
 17.003      52.000
 17.013      52.000
 17.023      52.000
 17.033      52.000
 17.043      52.000
 17.053      52.000
 17.063      52.000
 17.073      52.000
 17.083      52.000
 17.093      52.000
 17.103      52.000
 17.113      52.000
 17.123      52.000
 17.133      52.000
 17.143      52.000
 17.153      52.000
 17.163      52.000
 17.173      52.000
 17.183      52.000
 17.193      52.000
 17.203      52.000
 17.213      52.000
 17.223      52.000
 17.233      52.000
 17.243      52.000
 17.253      52.000
 17.263      52.000
 17.273      52.000
 17.283      52.000
 17.293      52.000
 17.303      52.000
 17.313      52.000
 17.323      52.000
 17.333      52.000
 17.343      52.000
 17.353      52.000
 17.363      52.000
 17.373      52.000
 17.383      52.000
 17.393      52.000
 17.403      52.000
 17.413      52.000
 17.423      52.000
 17.433      52.000
 17.443      52.000
 17.453      52.000
 17.463      52.000
 17.473      52.000
 17.483      52.000
 17.493      52.000
 17.503      52.000
 17.514      52.000
 17.524      52.000
 17.534      52.000
 17.544      52.000
 17.554      52.000
 17.564      52.000
 17.574      52.000
 17.584      52.000
 17.594      52.000
 17.604      52.000
 17.614      52.000
 17.624      52.000
 17.634      52.000
 17.644      52.000
 17.654      52.000
 17.664      52.000
 17.674      52.000
 17.684      52.000
 17.694      52.000
 17.704      52.000
 17.714      52.000
 17.724      52.000
 17.734      52.000
 17.744      52.000
 17.754      52.000
 17.764      52.000
 17.774      52.000
 17.784      52.000
 17.794      52.000
 17.804      52.000
 17.814      52.000
 17.824      52.000
 17.834      52.000
 17.844      52.000
 17.854      52.000
 17.864      52.000
 17.874      52.000
 17.884      52.000
 17.894      52.000
 17.904      52.000
 17.914      52.000
 17.924      52.000
 17.934      52.000
 17.944      52.000
 17.954      52.000
 17.964      52.000
 17.974      52.000
 17.984      52.000
 17.994      52.000
 18.004      52.000
 18.014      52.000
 18.024      52.000
 18.034      52.000
 18.044      52.000
 18.054      52.000
 18.064      52.000
 18.075      52.000
 18.085      52.000
 18.095      52.000
 18.105      52.000
 18.115      52.000
 18.125      52.000
 18.135      52.000
 18.145      52.000
 18.155      52.000
 18.165      52.000
 18.175      52.000
 18.185      52.000
 18.195      52.000
 18.205      52.000
 18.215      52.000
 18.225      52.000
 18.235      52.000
 18.245      52.000
 18.255      52.000
 18.265      52.000
 18.275      52.000
 18.285      52.000
 18.295      52.000
 18.305      52.000
 18.315      52.000
 18.325      52.000
 18.335      52.000
 18.345      52.000
 18.355      52.000
 18.365      52.000
 18.375      52.000
 18.385      52.000
 18.395      52.000
 18.405      52.000
 18.415      52.000
 18.425      52.000
 18.435      52.000
 18.445      52.000
 18.455      52.000
 18.465      52.000
 18.475      52.000
 18.485      52.000
 18.495      52.000
 18.505      52.000
 18.515      52.000
 18.525      52.000
 18.535      52.000
 18.545      52.000
 18.555      52.000
 18.565      52.000
 18.575      52.000
 18.585      52.000
 18.595      52.000
 18.605      52.000
 18.615      52.000
 18.625      52.000
 18.636      52.000
 18.646      52.000
 18.656      52.000
 18.666      52.000
 18.676      52.000
 18.686      52.000
 18.696      52.000
 18.706      52.000
 18.716      52.000
 18.726      52.000
 18.736      52.000
 18.746      52.000
 18.756      52.000
 18.766      52.000
 18.776      52.000
 18.786      52.000
 18.796      52.000
 18.806      52.000
 18.816      52.000
 18.826      52.000
 18.836      52.000
 18.846      52.000
 18.856      52.000
 18.866      52.000
 18.876      52.000
 18.886      52.000
 18.896      52.000
 18.906      52.000
 18.916      52.000
 18.926      52.000
 18.936      52.000
 18.946      52.000
 18.956      52.000
 18.966      52.000
 18.976      52.000
 18.986      52.000
 18.996      52.000
 19.006      52.000
 19.016      52.000
 19.026      52.000
 19.036      52.000
 19.046      52.000
 19.056      52.000
 19.066      52.000
 19.076      52.000
 19.086      52.000
 19.096      52.000
 19.106      52.000
 19.116      52.000
 19.126      52.000
 19.136      52.000
 19.146      52.000
 19.156      52.000
 19.166      52.000
 19.176      52.000
 19.187      52.000
 19.197      52.000
 19.207      52.000
 19.217      52.000
 19.227      52.000
 19.237      52.000
 19.247      52.000
 19.257      52.000
 19.267      52.000
 19.277      52.000
 19.287      52.000
 19.297      52.000
 19.307      52.000
 19.317      52.000
 19.327      52.000
 19.337      52.000
 19.347      52.000
 19.357      52.000
 19.367      52.000
 19.377      52.000
 19.387      52.000
 19.397      52.000
 19.407      52.000
 19.417      52.000
 19.427      52.000
 19.437      52.000
 19.447      52.000
 19.457      52.000
 19.467      52.000
 19.477      52.000
 19.487      52.000
 19.497      52.000
 19.507      52.000
 19.517      52.000
 19.527      52.000
 19.537      52.000
 19.547      52.000
 19.557      52.000
 19.567      52.000
 19.577      52.000
 19.587      52.000
 19.597      52.000
 19.607      52.000
 19.617      52.000
 19.627      52.000
 19.637      52.000
 19.647      52.000
 19.657      52.000
 19.667      52.000
 19.677      52.000
 19.687      52.000
 19.697      52.000
 19.707      52.000
 19.717      52.000
 19.727      52.000
 19.737      52.000
 19.748      52.000
 19.758      52.000
 19.768      52.000
 19.778      52.000
 19.788      52.000
 19.798      52.000
 19.808      52.000
 19.818      52.000
 19.828      52.000
 19.838      52.000
 19.848      52.000
 19.858      52.000
 19.868      52.000
 19.878      52.000
 19.888      52.000
 19.898      52.000
 19.908      52.000
 19.918      52.000
 19.928      52.000
 19.938      52.000
 19.948      52.000
 19.958      52.000
 19.968      52.000
 19.978      52.000
 19.988      52.000
 19.998      52.000
 20.008      52.000
 20.018      52.000
 20.028      52.000
 20.038      52.000
 20.048      52.000
 20.058      52.000
 20.068      52.000
 20.078      52.000
 20.088      52.000
 20.098      52.000
 20.108      52.000
 20.118      52.000
 20.128      52.000
 20.138      52.000
 20.148      52.000
 20.158      52.000
 20.168      52.000
 20.178      52.000
 20.188      52.000
 20.198      52.000
 20.208      52.000
 20.218      52.000
 20.228      52.000
 20.238      52.000
 20.248      52.000
 20.258      52.000
 20.268      52.000
 20.278      52.000
 20.288      52.000
 20.299      52.000
 20.309      52.000
 20.319      52.000
 20.329      52.000
 20.339      52.000
 20.349      52.000
 20.359      52.000
 20.369      52.000
 20.379      52.000
 20.389      52.000
 20.399      52.000
 20.409      52.000
 20.419      52.000
 20.429      52.000
 20.439      52.000
 20.449      52.000
 20.459      52.000
 20.469      52.000
 20.479      52.000
 20.489      52.000
 20.499      52.000
 20.509      52.000
 20.519      52.000
 20.529      52.000
 20.539      52.000
 20.549      52.000
 20.559      52.000
 20.569      52.000
 20.579      52.000
 20.589      52.000
 20.599      52.000
 20.609      52.000
 20.619      52.000
 20.629      52.000
 20.639      52.000
 20.649      52.000
 20.659      52.000
 20.669      52.000
 20.679      52.000
 20.689      52.000
 20.699      52.000
 20.709      52.000
 20.719      52.000
 20.729      52.000
 20.739      52.000
 20.749      52.000
 20.759      52.000
 20.769      52.000
 20.779      52.000
 20.789      52.000
 20.799      52.000
 20.809      52.000
 20.819      52.000
 20.829      52.000
 20.839      52.000
 20.849      52.000
 20.860      52.000
 20.870      52.000
 20.880      52.000
 20.890      52.000
 20.900      52.000
 20.910      52.000
 20.920      52.000
 20.930      52.000
 20.940      52.000
 20.950      52.000
 20.960      52.000
 20.970      52.000
 20.980      52.000
 20.990      52.000
 21.000      52.000
 21.010      52.000
 21.020      52.000
 21.030      52.000
 21.040      52.000
 21.050      52.000
 21.060      52.000
 21.070      52.000
 21.080      52.000
 21.090      52.000
 21.100      52.000
 21.110      52.000
 21.120      52.000
 21.130      52.000
 21.140      52.000
 21.150      52.000
 21.160      52.000
 21.170      52.000
 21.180      52.000
 21.190      52.000
 21.200      52.000
 21.210      52.000
 21.220      52.000
 21.230      52.000
 21.240      52.000
 21.250      52.000
 21.260      52.000
 21.270      52.000
 21.280      52.000
 21.290      52.000
 21.300      52.000
 21.310      52.000
 21.320      52.000
 21.330      52.000
 21.340      52.000
 21.350      52.000
 21.360      52.000
 21.370      52.000
 21.380      52.000
 21.390      52.000
 21.400      52.000
 21.411      52.000
 21.421      52.000
 21.431      52.000
 21.441      52.000
 21.451      52.000
 21.461      52.000
 21.471      52.000
 21.481      52.000
 21.491      52.000
 21.501      52.000
 21.511      52.000
 21.521      52.000
 21.531      52.000
 21.541      52.000
 21.551      52.000
 21.561      52.000
 21.571      52.000
 21.581      52.000
 21.591      52.000
 21.601      52.000
 21.611      52.000
 21.621      52.000
 21.631      52.000
 21.641      52.000
 21.651      52.000
 21.661      52.000
 21.671      52.000
 21.681      52.000
 21.691      52.000
 21.701      52.000
 21.711      52.000
 21.721      52.000
 21.731      52.000
 21.741      52.000
 21.751      52.000
 21.761      52.000
 21.771      52.000
 21.781      52.000
 21.791      52.000
 21.801      52.000
 21.811      52.000
 21.821      52.000
 21.831      52.000
 21.841      52.000
 21.851      52.000
 21.861      52.000
 21.871      52.000
 21.881      52.000
 21.891      52.000
 21.901      52.000
 21.911      52.000
 21.921      52.000
 21.931      52.000
 21.941      52.000
 21.951      52.000
 21.961      52.000
 21.972      52.000
 21.982      52.000
 21.992      52.000
 22.002      52.000
 22.012      52.000
 22.022      52.000
 22.032      52.000
 22.042      52.000
 22.052      52.000
 22.062      52.000
 22.072      52.000
 22.082      52.000
 22.092      52.000
 22.102      52.000
 22.112      52.000
 22.122      52.000
 22.132      52.000
 22.142      52.000
 22.152      52.000
 22.162      52.000
 22.172      52.000
 22.182      52.000
 22.192      52.000
 22.202      52.000
 22.212      52.000
 22.222      52.000
 22.232      52.000
 22.242      52.000
 22.252      52.000
 22.262      52.000
 22.272      52.000
 22.282      52.000
 22.292      52.000
 22.302      52.000
 22.312      52.000
 22.322      52.000
 22.332      52.000
 22.342      52.000
 22.352      52.000
 22.362      52.000
 22.372      52.000
 22.382      52.000
 22.392      52.000
 22.402      52.000
 22.412      52.000
 22.422      52.000
 22.432      52.000
 22.442      52.000
 22.452      52.000
 22.462      52.000
 22.472      52.000
 22.482      52.000
 22.492      52.000
 22.502      52.000
 22.512      52.000
 22.522      52.000
 22.533      52.000
 22.543      52.000
 22.553      52.000
 22.563      52.000
 22.573      52.000
 22.583      52.000
 22.593      52.000
 22.603      52.000
 22.613      52.000
 22.623      52.000
 22.633      52.000
 22.643      52.000
 22.653      52.000
 22.663      52.000
 22.673      52.000
 22.683      52.000
 22.693      52.000
 22.703      52.000
 22.713      52.000
 22.723      52.000
 22.733      52.000
 22.743      52.000
 22.753      52.000
 22.763      52.000
 22.773      52.000
 22.783      52.000
 22.793      52.000
 22.803      52.000
 22.813      52.000
 22.823      52.000
 22.833      52.000
 22.843      52.000
 22.853      52.000
 22.863      52.000
 22.873      52.000
 22.883      52.000
 22.893      52.000
 22.903      52.000
 22.913      52.000
 22.923      52.000
 22.933      52.000
 22.943      52.000
 22.953      52.000
 22.963      52.000
 22.973      52.000
 22.983      52.000
 22.993      52.000
 23.003      52.000
 23.013      52.000
 23.023      52.000
 23.033      52.000
 23.043      52.000
 23.053      52.000
 23.063      52.000
 23.073      52.000
 23.084      52.000
 23.094      52.000
 23.104      52.000
 23.114      52.000
 23.124      52.000
 23.134      52.000
 23.144      52.000
 23.154      52.000
 23.164      52.000
 23.174      52.000
 23.184      52.000
 23.194      52.000
 23.204      52.000
 23.214      52.000
 23.224      52.000
 23.234      52.000
 23.244      52.000
 23.254      52.000
 23.264      52.000
 23.274      52.000
 23.284      52.000
 23.294      52.000
 23.304      52.000
 23.314      52.000
 23.324      52.000
 23.334      52.000
 23.344      52.000
 23.354      52.000
 23.364      52.000
 23.374      52.000
 23.384      52.000
 23.394      52.000
 23.404      52.000
 23.414      52.000
 23.424      52.000
 23.434      52.000
 23.444      52.000
 23.454      52.000
 23.464      52.000
 23.474      52.000
 23.484      52.000
 23.494      52.000
 23.504      52.000
 23.514      52.000
 23.524      52.000
 23.534      52.000
 23.544      52.000
 23.554      52.000
 23.564      52.000
 23.574      52.000
 23.584      52.000
 23.594      52.000
 23.604      52.000
 23.614      52.000
 23.624      52.000
 23.634      52.000
 23.645      52.000
 23.655      52.000
 23.665      52.000
 23.675      52.000
 23.685      52.000
 23.695      52.000
 23.705      52.000
 23.715      52.000
 23.725      52.000
 23.735      52.000
 23.745      52.000
 23.755      52.000
 23.765      52.000
 23.775      52.000
 23.785      52.000
 23.795      52.000
 23.805      52.000
 23.815      52.000
 23.825      52.000
 23.835      52.000
 23.845      52.000
 23.855      52.000
 23.865      52.000
 23.875      52.000
 23.885      52.000
 23.895      52.000
 23.905      52.000
 23.915      52.000
 23.925      52.000
 23.935      52.000
 23.945      52.000
 23.955      52.000
 23.965      52.000
 23.975      52.000
 23.985      52.000
 23.995      52.000
 24.005      52.000
 24.015      52.000
 24.025      52.000
 24.035      52.000
 24.045      52.000
 24.055      52.000
 24.065      52.000
 24.075      52.000
 24.085      52.000
 24.095      52.000
 24.105      52.000
 24.115      52.000
 24.125      52.000
 24.135      52.000
 24.145      52.000
 24.155      52.000
 24.165      52.000
 24.175      52.000
 24.185      52.000
 24.196      52.000
 24.206      52.000
 24.216      52.000
 24.226      52.000
 24.236      52.000
 24.246      52.000
 24.256      52.000
 24.266      52.000
 24.276      52.000
 24.286      52.000
 24.296      52.000
 24.306      52.000
 24.316      52.000
 24.326      52.000
 24.336      52.000
 24.346      52.000
 24.356      52.000
 24.366      52.000
 24.376      52.000
 24.386      52.000
 24.396      52.000
 24.406      52.000
 24.416      52.000
 24.426      52.000
 24.436      52.000
 24.446      52.000
 24.456      52.000
 24.466      52.000
 24.476      52.000
 24.486      52.000
 24.496      52.000
 24.506      52.000
 24.516      52.000
 24.526      52.000
 24.536      52.000
 24.546      52.000
 24.556      52.000
 24.566      52.000
 24.576      52.000
 24.586      52.000
 24.596      52.000
 24.606      52.000
 24.616      52.000
 24.626      52.000
 24.636      52.000
 24.646      52.000
 24.656      52.000
 24.666      52.000
 24.676      52.000
 24.686      52.000
 24.696      52.000
 24.706      52.000
 24.716      52.000
 24.726      52.000
 24.736      52.000
 24.746      52.000
 24.757      52.000
 24.767      52.000
 24.777      52.000
 24.787      52.000
 24.797      52.000
 24.807      52.000
 24.817      52.000
 24.827      52.000
 24.837      52.000
 24.847      52.000
 24.857      52.000
 24.867      52.000
 24.877      52.000
 24.887      52.000
 24.897      52.000
 24.907      52.000
 24.917      52.000
 24.927      52.000
 24.937      52.000
 24.947      52.000
 24.957      52.000
 24.967      52.000
 24.977      52.000
 24.987      52.000
 24.997      52.000
 25.007      52.000
 25.017      52.000
 25.027      52.000
 25.037      52.000
 25.047      52.000
 25.057      52.000
 25.067      52.000
 25.077      52.000
 25.087      52.000
 25.097      52.000
 25.107      52.000
 25.117      52.000
 25.127      52.000
 25.137      52.000
 25.147      52.000
 25.157      52.000
 25.167      52.000
 25.177      52.000
 25.187      52.000
 25.197      52.000
 25.207      52.000
 25.217      52.000
 25.227      52.000
 25.237      52.000
 25.247      52.000
 25.257      52.000
 25.267      52.000
 25.277      52.000
 25.287      52.000
 25.297      52.000
 25.308      52.000
 25.318      52.000
 25.328      52.000
 25.338      52.000
 25.348      52.000
 25.358      52.000
 25.368      52.000
 25.378      52.000
 25.388      52.000
 25.398      52.000
 25.408      52.000
 25.418      52.000
 25.428      52.000
 25.438      52.000
 25.448      52.000
 25.458      52.000
 25.468      52.000
 25.478      52.000
 25.488      52.000
 25.498      52.000
 25.508      52.000
 25.518      52.000
 25.528      52.000
 25.538      52.000
 25.548      52.000
 25.558      52.000
 25.568      52.000
 25.578      52.000
 25.588      52.000
 25.598      52.000
 25.608      52.000
 25.618      52.000
 25.628      52.000
 25.638      52.000
 25.648      52.000
 25.658      52.000
 25.668      52.000
 25.678      52.000
 25.688      52.000
 25.698      52.000
 25.708      52.000
 25.718      52.000
 25.728      52.000
 25.738      52.000
 25.748      52.000
 25.758      52.000
 25.768      52.000
 25.778      52.000
 25.788      52.000
 25.798      52.000
 25.808      52.000
 25.818      52.000
 25.828      52.000
 25.838      52.000
 25.848      52.000
 25.858      52.000
 25.869      52.000
 25.879      52.000
 25.889      52.000
 25.899      52.000
 25.909      52.000
 25.919      52.000
 25.929      52.000
 25.939      52.000
 25.949      52.000
 25.959      52.000
 25.969      52.000
 25.979      52.000
 25.989      52.000
 25.999      52.000
 26.009      52.000
 26.019      52.000
 26.029      52.000
 26.039      52.000
 26.049      52.000
 26.059      52.000
 26.069      52.000
 26.079      52.000
 26.089      52.000
 26.099      52.000
 26.109      52.000
 26.119      52.000
 26.129      52.000
 26.139      52.000
 26.149      52.000
 26.159      52.000
 26.169      52.000
 26.179      52.000
 26.189      52.000
 26.199      52.000
 26.209      52.000
 26.219      52.000
 26.229      52.000
 26.239      52.000
 26.249      52.000
 26.259      52.000
 26.269      52.000
 26.279      52.000
 26.289      52.000
 26.299      52.000
 26.309      52.000
 26.319      52.000
 26.329      52.000
 26.339      52.000
 26.349      52.000
 26.359      52.000
 26.369      52.000
 26.379      52.000
 26.389      52.000
 26.399      52.000
 26.409      52.000
 26.420      52.000
 26.430      52.000
 26.440      52.000
 26.450      52.000
 26.460      52.000
 26.470      52.000
 26.480      52.000
 26.490      52.000
 26.500      52.000
 26.510      52.000
 26.520      52.000
 26.530      52.000
 26.540      52.000
 26.550      52.000
 26.560      52.000
 26.570      52.000
 26.580      52.000
 26.590      52.000
 26.600      52.000
 26.610      52.000
 26.620      52.000
 26.630      52.000
 26.640      52.432
 26.650      52.444
 26.660      52.457
 26.670      52.470
 26.680      52.484
 26.690      52.498
 26.700      52.513
 26.710      52.529
 26.720      52.546
 26.730      52.563
 26.740      52.581
 26.750      52.600
 26.760      52.620
 26.770      52.641
 26.780      52.663
 26.790      52.686
 26.800      52.710
 26.810      52.736
 26.820      52.763
 26.830      52.791
 26.840      52.822
 26.850      52.854
 26.860      52.888
 26.870      52.924
 26.880      52.962
 26.890      53.002
 26.900      53.046
 26.910      53.092
 26.920      53.141
 26.930      53.194
 26.940      53.250
 26.950      53.310
 26.960      53.375
 26.970      53.445
 26.981      53.520
 26.991      53.602
 27.001      53.690
 27.011      53.785
 27.021      53.889
 27.031      54.001
 27.041      54.125
 27.051      54.260
 27.061      54.408
 27.071      54.571
 27.081      54.751
 27.091      54.951
 27.101      55.174
 27.111      55.422
 27.121      55.700
 27.131      56.014
 27.141      56.368
 27.151      56.772
 27.161      57.233
 27.171      57.765
 27.181      58.380
 27.191      59.098
 27.201      59.942
 27.211      60.943
 27.221      62.143
 27.231      63.595
 27.241      65.374
 27.251      67.582
 27.261      70.364
 27.271      73.925
 27.281      78.565
 27.291      84.732
 27.301      93.094
 27.311     104.647
 27.321     158.213
 27.331     182.852
 27.341     205.197
 27.351     222.454
 27.361     232.240
 27.371     233.123
 27.381     224.974
 27.391     208.987
 27.401     187.406
 27.411     162.993
 27.421     107.341
 27.431      95.026
 27.441      86.142
 27.451      79.614
 27.461      74.720
 27.471      70.979
 27.481      68.067
 27.491      65.761
 27.501      63.909
 27.511      62.400
 27.521      61.157
 27.531      60.121
 27.542      59.249
 27.552      58.509
 27.562      57.876
 27.572      57.330
 27.582      56.856
 27.592      56.442
 27.602      56.078
 27.612      55.757
 27.622      55.473
 27.632      55.219
 27.642      54.992
 27.652      54.788
 27.662      54.604
 27.672      54.438
 27.682      54.287
 27.692      54.150
 27.702      54.024
 27.712      53.909
 27.722      53.804
 27.732      53.707
 27.742      53.618
 27.752      53.535
 27.762      53.459
 27.772      53.388
 27.782      53.322
 27.792      53.261
 27.802      53.204
 27.812      53.151
 27.822      53.101
 27.832      53.054
 27.842      53.011
 27.852      52.969
 27.862      52.931
 27.872      52.894
 27.882      52.860
 27.892      52.828
 27.902      52.797
 27.912      52.768
 27.922      52.741
 27.932      52.715
 27.942      52.690
 27.952      52.667
 27.962      52.645
 27.972      52.624
 27.982      52.604
 27.992      52.584
 28.002      52.566
 28.012      52.549
 28.022      52.532
 28.032      52.516
 28.042      52.501
 28.052      52.487
 28.062      52.473
 28.072      52.459
 28.082      52.447
 28.093      52.435
 28.103      52.000
 28.113      52.000
 28.123      52.000
 28.133      52.000
 28.143      52.000
 28.153      52.000
 28.163      52.000
 28.173      52.000
 28.183      52.000
 28.193      52.000
 28.203      52.000
 28.213      52.000
 28.223      52.000
 28.233      52.000
 28.243      52.000
 28.253      52.000
 28.263      52.000
 28.273      52.000
 28.283      52.000
 28.293      52.000
 28.303      52.000
 28.313      52.000
 28.323      52.000
 28.333      52.000
 28.343      52.000
 28.353      52.000
 28.363      52.000
 28.373      52.000
 28.383      52.000
 28.393      52.000
 28.403      52.000
 28.413      52.000
 28.423      52.000
 28.433      52.000
 28.443      52.000
 28.453      52.000
 28.463      52.000
 28.473      52.000
 28.483      52.000
 28.493      52.000
 28.503      52.000
 28.513      52.000
 28.523      52.000
 28.533      52.000
 28.543      52.000
 28.553      52.000
 28.563      52.000
 28.573      52.000
 28.583      52.000
 28.593      52.000
 28.603      52.000
 28.613      52.000
 28.623      52.000
 28.633      52.000
 28.643      52.000
 28.654      52.000
 28.664      52.000
 28.674      52.000
 28.684      52.000
 28.694      52.000
 28.704      52.000
 28.714      52.000
 28.724      52.000
 28.734      52.000
 28.744      52.000
 28.754      52.000
 28.764      52.000
 28.774      52.000
 28.784      52.000
 28.794      52.000
 28.804      52.000
 28.814      52.000
 28.824      52.000
 28.834      52.000
 28.844      52.000
 28.854      52.000
 28.864      52.000
 28.874      52.000
 28.884      52.000
 28.894      52.000
 28.904      52.000
 28.914      52.000
 28.924      52.000
 28.934      52.000
 28.944      52.000
 28.954      52.000
 28.964      52.000
 28.974      52.000
 28.984      52.000
 28.994      52.000
 29.004      52.000
 29.014      52.000
 29.024      52.000
 29.034      52.000
 29.044      52.000
 29.054      52.000
 29.064      52.000
 29.074      52.000
 29.084      52.000
 29.094      52.000
 29.104      52.000
 29.114      52.000
 29.124      52.000
 29.134      52.000
 29.144      52.000
 29.154      52.000
 29.164      52.000
 29.174      52.000
 29.184      52.000
 29.194      52.000
 29.205      52.000
 29.215      52.000
 29.225      52.000
 29.235      52.000
 29.245      52.000
 29.255      52.000
 29.265      52.000
 29.275      52.000
 29.285      52.000
 29.295      52.000
 29.305      52.000
 29.315      52.000
 29.325      52.000
 29.335      52.000
 29.345      52.000
 29.355      52.000
 29.365      52.000
 29.375      52.000
 29.385      52.000
 29.395      52.000
 29.405      52.000
 29.415      52.000
 29.425      52.000
 29.435      52.000
 29.445      52.000
 29.455      52.000
 29.465      52.000
 29.475      52.000
 29.485      52.000
 29.495      52.000
 29.505      52.000
 29.515      52.000
 29.525      52.000
 29.535      52.000
 29.545      52.000
 29.555      52.000
 29.565      52.000
 29.575      52.000
 29.585      52.000
 29.595      52.000
 29.605      52.000
 29.615      52.000
 29.625      52.000
 29.635      52.000
 29.645      52.000
 29.655      52.000
 29.665      52.000
 29.675      52.000
 29.685      52.000
 29.695      52.000
 29.705      52.000
 29.715      52.000
 29.725      52.000
 29.735      52.000
 29.745      52.000
 29.755      52.000
 29.766      52.000
 29.776      52.000
 29.786      52.000
 29.796      52.000
 29.806      52.000
 29.816      52.000
 29.826      52.000
 29.836      52.000
 29.846      52.000
 29.856      52.000
 29.866      52.000
 29.876      52.000
 29.886      52.000
 29.896      52.000
 29.906      52.000
 29.916      52.000
 29.926      52.000
 29.936      52.000
 29.946      52.000
 29.956      52.000
 29.966      52.000
 29.976      52.000
 29.986      52.000
 29.996      52.000
 30.006      52.000
 30.016      52.000
 30.026      52.000
 30.036      52.000
 30.046      52.000
 30.056      52.000
 30.066      52.000
 30.076      52.000
 30.086      52.000
 30.096      52.000
 30.106      52.000
 30.116      52.000
 30.126      52.000
 30.136      52.000
 30.146      52.000
 30.156      52.000
 30.166      52.000
 30.176      52.000
 30.186      52.000
 30.196      52.000
 30.206      52.000
 30.216      52.000
 30.226      52.000
 30.236      52.000
 30.246      52.000
 30.256      52.000
 30.266      52.000
 30.276      52.000
 30.286      52.000
 30.296      52.000
 30.306      52.000
 30.317      52.000
 30.327      52.000
 30.337      52.000
 30.347      52.000
 30.357      52.000
 30.367      52.000
 30.377      52.000
 30.387      52.000
 30.397      52.000
 30.407      52.000
 30.417      52.000
 30.427      52.000
 30.437      52.000
 30.447      52.000
 30.457      52.000
 30.467      52.000
 30.477      52.000
 30.487      52.000
 30.497      52.000
 30.507      52.000
 30.517      52.000
 30.527      52.000
 30.537      52.000
 30.547      52.000
 30.557      52.000
 30.567      52.000
 30.577      52.000
 30.587      52.000
 30.597      52.000
 30.607      52.000
 30.617      52.000
 30.627      52.000
 30.637      52.000
 30.647      52.000
 30.657      52.000
 30.667      52.000
 30.677      52.000
 30.687      52.000
 30.697      52.000
 30.707      52.000
 30.717      52.000
 30.727      52.000
 30.737      52.000
 30.747      52.000
 30.757      52.000
 30.767      52.000
 30.777      52.000
 30.787      52.000
 30.797      52.000
 30.807      52.000
 30.817      52.000
 30.827      52.000
 30.837      52.000
 30.847      52.000
 30.857      52.000
 30.867      52.000
 30.878      52.000
 30.888      52.000
 30.898      52.000
 30.908      56.838
 30.918      56.962
 30.928      57.090
 30.938      57.224
 30.948      57.363
 30.958      57.507
 30.968      57.657
 30.978      57.814
 30.988      57.977
 30.998      58.148
 31.008      58.325
 31.018      58.511
 31.028      58.704
 31.038      58.907
 31.048      59.118
 31.058      59.340
 31.068      59.572
 31.078      59.815
 31.088      60.070
 31.098      60.338
 31.108      60.619
 31.118      60.915
 31.128      61.227
 31.138      61.554
 31.148      61.900
 31.158      62.265
 31.168      62.650
 31.178      63.057
 31.188      63.488
 31.198      63.945
 31.208      64.429
 31.218      64.944
 31.228      65.490
 31.238      66.073
 31.248      66.693
 31.258      67.356
 31.268      68.064
 31.278      68.823
 31.288      69.636
 31.298      70.509
 31.308      71.449
 31.318      72.462
 31.328      73.556
 31.338      74.739
 31.348      76.023
 31.358      77.417
 31.368      78.937
 31.378      80.596
 31.388      82.412
 31.398      84.407
 31.408      86.603
 31.418      89.028
 31.429      91.716
 31.439      94.706
 31.449      98.044
 31.459     101.785
 31.469     105.998
 31.479     110.763
 31.489     116.180
 31.499     122.375
 31.509     129.497
 31.519     137.742
 31.529     147.356
 31.539     158.648
 31.549     172.027
 31.559     188.030
 31.569     207.363
 31.579     230.987
 31.589     260.223
 31.599     296.892
 31.609     343.585
 31.619     404.009
 31.629     483.544
 31.639     589.924
 31.649    1118.084
 31.659    1372.739
 31.669    1619.917
 31.679    1835.732
 31.689    1996.651
 31.699    2083.633
 31.709    2085.990
 31.719    2003.406
 31.729    1846.107
 31.739    1632.699
 31.749    1386.550
 31.759    1131.773
 31.769     596.688
 31.779     488.544
 31.789     407.790
 31.799     346.482
 31.809     299.141
 31.819     262.003
 31.829     232.420
 31.839     208.529
 31.849     188.987
 31.859     172.825
 31.869     159.319
 31.879     147.923
 31.889     138.228
 31.899     129.916
 31.909     122.736
 31.919     116.496
 31.929     111.040
 31.939     106.241
 31.949     102.001
 31.959      98.236
 31.969      94.878
 31.979      91.871
 31.990      89.167
 32.000      86.728
 32.010      84.521
 32.020      82.516
 32.030      80.690
 32.040      79.023
 32.050      77.497
 32.060      76.096
 32.070      74.807
 32.080      73.617
 32.090      72.519
 32.100      71.502
 32.110      70.558
 32.120      69.682
 32.130      68.865
 32.140      68.104
 32.150      67.393
 32.160      66.728
 32.170      66.105
 32.180      65.521
 32.190      64.972
 32.200      64.456
 32.210      63.970
 32.220      63.512
 32.230      63.080
 32.240      62.671
 32.250      62.285
 32.260      61.919
 32.270      61.573
 32.280      61.244
 32.290      60.932
 32.300      60.635
 32.310      60.353
 32.320      60.085
 32.330      59.829
 32.340      59.585
 32.350      59.352
 32.360      59.130
 32.370      58.918
 32.380      58.715
 32.390      58.521
 32.400      58.335
 32.410      58.157
 32.420      57.986
 32.430      57.823
 32.440      57.666
 32.450      57.515
 32.460      57.370
 32.470      57.231
 32.480      57.097
 32.490      56.968
 32.500      56.844
 32.510      52.000
 32.520      52.000
 32.530      52.000
 32.541      52.000
 32.551      52.000
 32.561      52.000
 32.571      52.000
 32.581      52.000
 32.591      52.000
 32.601      52.000
 32.611      52.000
 32.621      52.000
 32.631      52.000
 32.641      52.000
 32.651      52.000
 32.661      52.000
 32.671      52.000
 32.681      52.000
 32.691      52.000
 32.701      52.000
 32.711      52.000
 32.721      52.000
 32.731      52.000
 32.741      52.000
 32.751      52.000
 32.761      52.000
 32.771      52.000
 32.781      52.000
 32.791      52.000
 32.801      52.000
 32.811      52.000
 32.821      52.000
 32.831      52.000
 32.841      52.000
 32.851      52.000
 32.861      52.000
 32.871      52.000
 32.881      52.000
 32.891      52.000
 32.901      52.000
 32.911      52.000
 32.921      52.000
 32.931      52.000
 32.941      52.000
 32.951      52.000
 32.961      52.000
 32.971      52.000
 32.981      52.000
 32.991      52.000
 33.001      52.000
 33.011      52.000
 33.021      52.000
 33.031      52.000
 33.041      52.000
 33.051      52.000
 33.061      52.000
 33.071      52.000
 33.081      52.000
 33.091      52.000
 33.102      52.000
 33.112      52.000
 33.122      52.000
 33.132      52.000
 33.142      52.000
 33.152      52.000
 33.162      52.000
 33.172      52.000
 33.182      52.000
 33.192      52.000
 33.202      52.000
 33.212      52.000
 33.222      52.000
 33.232      52.000
 33.242      52.000
 33.252      52.000
 33.262      52.000
 33.272      52.000
 33.282      52.000
 33.292      52.000
 33.302      52.000
 33.312      52.000
 33.322      52.000
 33.332      52.000
 33.342      52.000
 33.352      52.000
 33.362      52.000
 33.372      52.000
 33.382      52.000
 33.392      52.000
 33.402      52.000
 33.412      52.000
 33.422      52.000
 33.432      52.000
 33.442      52.000
 33.452      52.000
 33.462      52.000
 33.472      52.000
 33.482      52.000
 33.492      52.000
 33.502      52.000
 33.512      52.000
 33.522      52.000
 33.532      52.000
 33.542      52.000
 33.552      52.000
 33.562      52.000
 33.572      52.000
 33.582      52.000
 33.592      52.000
 33.602      52.000
 33.612      52.000
 33.622      52.000
 33.632      52.000
 33.642      52.000
 33.652      52.000
 33.663      52.000
 33.673      52.000
 33.683      52.000
 33.693      52.000
 33.703      52.000
 33.713      52.000
 33.723      52.000
 33.733      52.000
 33.743      52.000
 33.753      52.000
 33.763      52.000
 33.773      52.000
 33.783      52.000
 33.793      52.000
 33.803      52.000
 33.813      52.000
 33.823      52.000
 33.833      52.000
 33.843      52.000
 33.853      52.000
 33.863      52.000
 33.873      52.000
 33.883      52.000
 33.893      52.000
 33.903      52.000
 33.913      52.000
 33.923      52.000
 33.933      52.000
 33.943      52.000
 33.953      52.000
 33.963      52.000
 33.973      52.000
 33.983      52.000
 33.993      52.000
 34.003      52.000
 34.013      52.000
 34.023      52.000
 34.033      52.000
 34.043      52.000
 34.053      52.000
 34.063      52.000
 34.073      52.000
 34.083      52.000
 34.093      52.000
 34.103      52.000
 34.113      52.000
 34.123      52.000
 34.133      52.000
 34.143      52.000
 34.153      52.000
 34.163      52.000
 34.173      52.000
 34.183      52.000
 34.193      52.000
 34.203      52.000
 34.214      52.000
 34.224      52.000
 34.234      52.000
 34.244      52.000
 34.254      52.000
 34.264      52.000
 34.274      52.000
 34.284      52.000
 34.294      52.000
 34.304      52.000
 34.314      52.000
 34.324      52.000
 34.334      52.000
 34.344      52.000
 34.354      52.000
 34.364      52.000
 34.374      52.000
 34.384      52.000
 34.394      52.000
 34.404      52.000
 34.414      52.000
 34.424      52.000
 34.434      52.000
 34.444      52.000
 34.454      52.000
 34.464      52.000
 34.474      52.000
 34.484      52.000
 34.494      52.000
 34.504      52.000
 34.514      52.000
 34.524      52.000
 34.534      52.000
 34.544      52.000
 34.554      52.000
 34.564      52.000
 34.574      52.000
 34.584      52.000
 34.594      52.000
 34.604      52.000
 34.614      52.000
 34.624      52.000
 34.634      52.000
 34.644      52.000
 34.654      52.000
 34.664      52.000
 34.674      52.000
 34.684      52.000
 34.694      52.000
 34.704      52.000
 34.714      52.000
 34.724      52.000
 34.734      52.000
 34.744      52.000
 34.754      52.000
 34.764      52.000
 34.775      52.000
 34.785      52.000
 34.795      52.000
 34.805      52.000
 34.815      52.000
 34.825      52.000
 34.835      52.000
 34.845      52.000
 34.855      52.000
 34.865      52.000
 34.875      52.000
 34.885      52.000
 34.895      52.000
 34.905      52.000
 34.915      52.000
 34.925      52.000
 34.935      52.000
 34.945      52.000
 34.955      52.000
 34.965      52.000
 34.975      52.000
 34.985      52.000
 34.995      52.000
 35.005      52.000
 35.015      52.000
 35.025      52.000
 35.035      52.000
 35.045      52.000
 35.055      52.000
 35.065      52.000
 35.075      52.000
 35.085      52.000
 35.095      52.000
 35.105      52.000
 35.115      52.000
 35.125      52.000
 35.135      52.000
 35.145      52.000
 35.155      52.000
 35.165      52.000
 35.175      52.000
 35.185      52.000
 35.195      52.000
 35.205      52.000
 35.215      52.000
 35.225      52.000
 35.235      52.000
 35.245      52.000
 35.255      52.000
 35.265      52.000
 35.275      52.000
 35.285      52.000
 35.295      52.000
 35.305      52.000
 35.315      52.000
 35.326      52.000
 35.336      52.000
 35.346      52.000
 35.356      52.000
 35.366      52.000
 35.376      52.000
 35.386      52.000
 35.396      52.000
 35.406      52.000
 35.416      52.000
 35.426      52.000
 35.436      52.000
 35.446      52.000
 35.456      52.000
 35.466      52.000
 35.476      52.000
 35.486      52.000
 35.496      52.000
 35.506      52.000
 35.516      52.000
 35.526      52.000
 35.536      52.000
 35.546      52.000
 35.556      52.000
 35.566      52.000
 35.576      52.000
 35.586      52.000
 35.596      52.000
 35.606      52.000
 35.616      52.000
 35.626      52.000
 35.636      52.000
 35.646      52.000
 35.656      52.000
 35.666      52.000
 35.676      52.000
 35.686      52.000
 35.696      52.000
 35.706      52.000
 35.716      52.000
 35.726      52.000
 35.736      52.000
 35.746      52.000
 35.756      52.000
 35.766      52.000
 35.776      52.000
 35.786      52.000
 35.796      52.000
 35.806      52.000
 35.816      52.000
 35.826      52.000
 35.836      52.000
 35.846      52.000
 35.856      52.000
 35.866      52.000
 35.876      52.000
 35.887      52.000
 35.897      52.000
 35.907      52.000
 35.917      52.000
 35.927      52.000
 35.937      52.000
 35.947      52.000
 35.957      52.000
 35.967      52.000
 35.977      52.000
 35.987      52.000
 35.997      52.000
 36.007      52.000
 36.017      52.000
 36.027      52.000
 36.037      52.000
 36.047      52.000
 36.057      52.000
 36.067      52.000
 36.077      52.000
 36.087      52.000
 36.097      52.000
 36.107      52.000
 36.117      52.000
 36.127      52.000
 36.137      52.000
 36.147      52.000
 36.157      52.000
 36.167      52.000
 36.177      52.000
 36.187      52.000
 36.197      52.000
 36.207      52.000
 36.217      52.000
 36.227      52.000
 36.237      52.000
 36.247      52.000
 36.257      52.000
 36.267      52.000
 36.277      52.000
 36.287      52.000
 36.297      52.000
 36.307      52.000
 36.317      52.000
 36.327      52.000
 36.337      52.000
 36.347      52.000
 36.357      52.000
 36.367      52.000
 36.377      52.000
 36.387      52.000
 36.397      52.000
 36.407      52.000
 36.417      52.000
 36.427      52.000
 36.438      52.000
 36.448      52.000
 36.458      52.000
 36.468      52.000
 36.478      52.000
 36.488      52.000
 36.498      52.000
 36.508      52.000
 36.518      52.000
 36.528      52.000
 36.538      52.000
 36.548      52.000
 36.558      52.000
 36.568      52.000
 36.578      52.000
 36.588      52.000
 36.598      52.000
 36.608      52.000
 36.618      52.000
 36.628      52.000
 36.638      52.000
 36.648      52.000
 36.658      52.000
 36.668      52.000
 36.678      52.000
 36.688      52.000
 36.698      52.000
 36.708      52.000
 36.718      52.000
 36.728      52.000
 36.738      52.000
 36.748      52.000
 36.758      52.000
 36.768      52.000
 36.778      52.000
 36.788      52.000
 36.798      52.000
 36.808      52.000
 36.818      52.000
 36.828      52.000
 36.838      52.000
 36.848      52.000
 36.858      52.000
 36.868      52.000
 36.878      52.000
 36.888      52.000
 36.898      52.000
 36.908      52.000
 36.918      52.000
 36.928      52.000
 36.938      52.000
 36.948      52.000
 36.958      52.000
 36.968      52.000
 36.978      52.000
 36.988      52.000
 36.999      52.000
 37.009      52.000
 37.019      52.000
 37.029      52.000
 37.039      52.000
 37.049      52.000
 37.059      52.000
 37.069      52.000
 37.079      52.000
 37.089      52.000
 37.099      52.000
 37.109      52.000
 37.119      52.000
 37.129      52.000
 37.139      52.000
 37.149      52.000
 37.159      52.000
 37.169      52.000
 37.179      52.000
 37.189      52.000
 37.199      52.000
 37.209      52.000
 37.219      52.000
 37.229      52.000
 37.239      52.000
 37.249      52.000
 37.259      52.000
 37.269      52.000
 37.279      52.000
 37.289      52.000
 37.299      52.000
 37.309      52.000
 37.319      52.000
 37.329      52.000
 37.339      52.000
 37.349      52.000
 37.359      52.000
 37.369      52.000
 37.379      52.000
 37.389      52.000
 37.399      52.000
 37.409      52.000
 37.419      52.000
 37.429      52.000
 37.439      52.000
 37.449      52.000
 37.459      52.000
 37.469      52.000
 37.479      52.000
 37.489      52.000
 37.499      52.000
 37.509      52.000
 37.519      52.000
 37.529      52.000
 37.539      52.000
 37.549      52.000
 37.560      52.000
 37.570      52.000
 37.580      52.000
 37.590      52.000
 37.600      52.000
 37.610      52.000
 37.620      52.000
 37.630      52.000
 37.640      52.000
 37.650      52.000
 37.660      52.000
 37.670      52.000
 37.680      52.000
 37.690      52.000
 37.700      52.000
 37.710      52.000
 37.720      52.000
 37.730      52.000
 37.740      52.000
 37.750      52.000
 37.760      52.000
 37.770      52.000
 37.780      52.000
 37.790      52.000
 37.800      52.000
 37.810      52.000
 37.820      52.000
 37.830      52.000
 37.840      52.000
 37.850      52.000
 37.860      52.000
 37.870      52.000
 37.880      52.000
 37.890      52.000
 37.900      52.000
 37.910      52.000
 37.920      52.000
 37.930      52.000
 37.940      52.000
 37.950      52.000
 37.960      52.000
 37.970      52.000
 37.980      52.000
 37.990      52.000
 38.000      52.000
 38.010      52.000
 38.020      52.000
 38.030      52.000
 38.040      52.000
 38.050      52.000
 38.060      52.000
 38.070      52.000
 38.080      52.000
 38.090      52.000
 38.100      52.000
 38.111      52.000
 38.121      52.000
 38.131      52.000
 38.141      52.000
 38.151      52.000
 38.161      52.000
 38.171      52.000
 38.181      52.000
 38.191      52.000
 38.201      52.000
 38.211      52.000
 38.221      52.000
 38.231      52.000
 38.241      52.000
 38.251      52.000
 38.261      52.000
 38.271      52.000
 38.281      52.000
 38.291      52.000
 38.301      52.000
 38.311      52.000
 38.321      52.000
 38.331      52.000
 38.341      52.000
 38.351      52.000
 38.361      52.000
 38.371      52.000
 38.381      52.000
 38.391      52.000
 38.401      52.000
 38.411      52.000
 38.421      52.000
 38.431      52.000
 38.441      52.000
 38.451      52.000
 38.461      52.000
 38.471      52.000
 38.481      52.000
 38.491      52.000
 38.501      52.000
 38.511      52.000
 38.521      52.000
 38.531      52.000
 38.541      52.000
 38.551      52.000
 38.561      52.000
 38.571      52.000
 38.581      52.000
 38.591      52.000
 38.601      52.000
 38.611      52.000
 38.621      52.000
 38.631      52.000
 38.641      52.000
 38.651      52.000
 38.661      52.000
 38.672      52.000
 38.682      52.000
 38.692      52.000
 38.702      52.000
 38.712      52.000
 38.722      52.000
 38.732      52.000
 38.742      52.000
 38.752      52.000
 38.762      52.000
 38.772      52.000
 38.782      52.000
 38.792      52.000
 38.802      52.000
 38.812      52.000
 38.822      52.000
 38.832      52.000
 38.842      52.000
 38.852      52.000
 38.862      52.000
 38.872      52.000
 38.882      52.000
 38.892      52.000
 38.902      52.000
 38.912      52.000
 38.922      52.000
 38.932      52.000
 38.942      52.000
 38.952      52.000
 38.962      52.000
 38.972      52.000
 38.982      52.000
 38.992      52.000
 39.002      52.000
 39.012      52.000
 39.022      52.000
 39.032      52.000
 39.042      52.000
 39.052      52.000
 39.062      52.000
 39.072      52.000
 39.082      52.000
 39.092      52.000
 39.102      52.000
 39.112      52.000
 39.122      52.000
 39.132      52.000
 39.142      52.000
 39.152      52.000
 39.162      52.000
 39.172      52.000
 39.182      52.000
 39.192      52.000
 39.202      52.000
 39.212      52.000
 39.223      52.000
 39.233      52.000
 39.243      52.000
 39.253      52.000
 39.263      52.000
 39.273      52.000
 39.283      52.000
 39.293      52.000
 39.303      52.000
 39.313      52.000
 39.323      52.000
 39.333      52.000
 39.343      52.000
 39.353      52.000
 39.363      52.000
 39.373      52.000
 39.383      52.000
 39.393      52.000
 39.403      52.000
 39.413      52.000
 39.423      52.000
 39.433      52.000
 39.443      52.000
 39.453      52.000
 39.463      52.000
 39.473      52.000
 39.483      52.000
 39.493      52.000
 39.503      52.000
 39.513      52.000
 39.523      52.000
 39.533      52.000
 39.543      52.000
 39.553      52.000
 39.563      52.000
 39.573      52.000
 39.583      52.000
 39.593      52.000
 39.603      52.000
 39.613      52.000
 39.623      52.000
 39.633      52.000
 39.643      52.000
 39.653      52.000
 39.663      52.000
 39.673      52.000
 39.683      52.000
 39.693      52.000
 39.703      52.000
 39.713      52.000
 39.723      52.000
 39.733      52.000
 39.743      52.000
 39.753      52.000
 39.763      52.000
 39.773      52.000
 39.784      52.000
 39.794      52.000
 39.804      52.000
 39.814      52.000
 39.824      52.000
 39.834      52.000
 39.844      52.000
 39.854      52.000
 39.864      52.000
 39.874      52.000
 39.884      52.000
 39.894      52.000
 39.904      52.000
 39.914      52.000
 39.924      52.000
 39.934      52.000
 39.944      52.000
 39.954      52.000
 39.964      52.000
 39.974      52.000
 39.984      52.000
 39.994      52.000
 40.004      52.000
 40.014      52.000
 40.024      52.000
 40.034      52.000
 40.044      52.000
 40.054      52.000
 40.064      52.000
 40.074      52.000
 40.084      52.000
 40.094      52.000
 40.104      52.000
 40.114      52.000
 40.124      52.000
 40.134      52.000
 40.144      52.000
 40.154      52.000
 40.164      52.000
 40.174      52.000
 40.184      52.000
 40.194      52.000
 40.204      52.000
 40.214      52.000
 40.224      52.000
 40.234      52.000
 40.244      52.000
 40.254      52.000
 40.264      52.000
 40.274      52.000
 40.284      52.000
 40.294      52.000
 40.304      52.000
 40.314      52.000
 40.324      52.000
 40.335      52.000
 40.345      52.000
 40.355      52.000
 40.365      52.000
 40.375      52.000
 40.385      52.000
 40.395      52.000
 40.405      52.000
 40.415      52.000
 40.425      52.000
 40.435      52.000
 40.445      52.000
 40.455      52.000
 40.465      52.000
 40.475      52.000
 40.485      52.000
 40.495      52.000
 40.505      52.000
 40.515      52.000
 40.525      52.000
 40.535      52.000
 40.545      52.000
 40.555      52.000
 40.565      52.000
 40.575      52.000
 40.585      52.000
 40.595      52.000
 40.605      52.000
 40.615      52.000
 40.625      52.000
 40.635      52.000
 40.645      52.000
 40.655      52.000
 40.665      52.000
 40.675      52.000
 40.685      52.000
 40.695      52.000
 40.705      52.000
 40.715      52.000
 40.725      52.000
 40.735      52.000
 40.745      52.000
 40.755      52.000
 40.765      52.000
 40.775      52.000
 40.785      52.000
 40.795      52.000
 40.805      52.000
 40.815      52.000
 40.825      52.000
 40.835      52.000
 40.845      52.000
 40.855      52.000
 40.865      52.000
 40.875      52.000
 40.885      52.000
 40.896      52.000
 40.906      52.000
 40.916      52.000
 40.926      52.000
 40.936      52.000
 40.946      52.000
 40.956      52.000
 40.966      52.000
 40.976      52.000
 40.986      52.000
 40.996      52.000
 41.006      52.000
 41.016      52.000
 41.026      52.000
 41.036      52.000
 41.046      52.000
 41.056      52.000
 41.066      52.000
 41.076      52.000
 41.086      52.000
 41.096      52.000
 41.106      52.000
 41.116      52.000
 41.126      52.000
 41.136      52.000
 41.146      52.000
 41.156      52.000
 41.166      52.000
 41.176      52.000
 41.186      52.000
 41.196      52.000
 41.206      52.000
 41.216      52.000
 41.226      52.000
 41.236      52.000
 41.246      52.000
 41.256      52.000
 41.266      52.000
 41.276      52.000
 41.286      52.000
 41.296      52.000
 41.306      52.000
 41.316      52.000
 41.326      52.000
 41.336      52.000
 41.346      52.000
 41.356      52.000
 41.366      52.000
 41.376      52.000
 41.386      52.000
 41.396      52.000
 41.406      52.000
 41.416      52.000
 41.426      52.000
 41.436      52.000
 41.447      52.000
 41.457      52.000
 41.467      52.000
 41.477      52.000
 41.487      52.000
 41.497      52.000
 41.507      52.000
 41.517      52.000
 41.527      52.000
 41.537      52.000
 41.547      52.000
 41.557      52.000
 41.567      52.000
 41.577      52.000
 41.587      52.000
 41.597      52.000
 41.607      52.000
 41.617      52.000
 41.627      52.000
 41.637      52.000
 41.647      52.000
 41.657      52.000
 41.667      52.000
 41.677      52.000
 41.687      52.000
 41.697      52.000
 41.707      52.000
 41.717      52.000
 41.727      52.000
 41.737      52.000
 41.747      52.000
 41.757      52.000
 41.767      52.000
 41.777      52.000
 41.787      52.000
 41.797      52.000
 41.807      52.000
 41.817      52.000
 41.827      52.000
 41.837      52.000
 41.847      52.000
 41.857      52.000
 41.867      52.000
 41.877      52.000
 41.887      52.000
 41.897      52.000
 41.907      52.000
 41.917      52.000
 41.927      52.000
 41.937      52.000
 41.947      52.000
 41.957      52.000
 41.967      52.000
 41.977      52.000
 41.987      52.000
 41.997      52.000
 42.008      52.000
 42.018      52.000
 42.028      52.000
 42.038      52.000
 42.048      52.000
 42.058      52.000
 42.068      52.000
 42.078      52.000
 42.088      52.000
 42.098      52.000
 42.108      52.000
 42.118      52.000
 42.128      52.000
 42.138      52.000
 42.148      52.000
 42.158      52.000
 42.168      52.000
 42.178      52.000
 42.188      52.000
 42.198      52.000
 42.208      52.000
 42.218      52.000
 42.228      52.000
 42.238      52.000
 42.248      52.000
 42.258      52.000
 42.268      52.000
 42.278      52.000
 42.288      52.000
 42.298      52.000
 42.308      52.000
 42.318      52.000
 42.328      52.000
 42.338      52.000
 42.348      52.000
 42.358      52.000
 42.368      52.000
 42.378      52.000
 42.388      52.000
 42.398      52.000
 42.408      52.000
 42.418      52.000
 42.428      52.000
 42.438      52.000
 42.448      52.000
 42.458      52.000
 42.468      52.000
 42.478      52.000
 42.488      52.000
 42.498      52.000
 42.508      52.000
 42.518      52.000
 42.528      52.000
 42.538      52.000
 42.548      52.000
 42.558      52.000
 42.569      52.000
 42.579      52.000
 42.589      52.000
 42.599      52.000
 42.609      52.000
 42.619      52.000
 42.629      52.000
 42.639      52.000
 42.649      52.000
 42.659      52.000
 42.669      52.000
 42.679      52.000
 42.689      52.000
 42.699      52.000
 42.709      52.000
 42.719      52.000
 42.729      52.000
 42.739      52.000
 42.749      52.000
 42.759      52.000
 42.769      52.000
 42.779      52.000
 42.789      52.000
 42.799      52.000
 42.809      52.000
 42.819      52.000
 42.829      52.000
 42.839      52.000
 42.849      52.000
 42.859      52.000
 42.869      52.000
 42.879      52.000
 42.889      52.000
 42.899      52.000
 42.909      52.000
 42.919      52.000
 42.929      52.000
 42.939      52.000
 42.949      52.000
 42.959      52.000
 42.969      52.000
 42.979      52.000
 42.989      52.000
 42.999      52.000
 43.009      52.000
 43.019      52.000
 43.029      52.000
 43.039      52.000
 43.049      52.000
 43.059      52.000
 43.069      52.000
 43.079      52.000
 43.089      52.000
 43.099      52.000
 43.109      52.000
 43.120      52.000
 43.130      52.000
 43.140      52.000
 43.150      52.000
 43.160      52.000
 43.170      52.000
 43.180      52.000
 43.190      52.000
 43.200      52.000
 43.210      52.000
 43.220      52.000
 43.230      52.000
 43.240      52.000
 43.250      52.000
 43.260      52.000
 43.270      52.000
 43.280      52.000
 43.290      52.000
 43.300      52.000
 43.310      52.000
 43.320      52.000
 43.330      52.000
 43.340      52.000
 43.350      52.000
 43.360      52.000
 43.370      52.000
 43.380      52.000
 43.390      52.000
 43.400      52.000
 43.410      52.000
 43.420      52.000
 43.430      52.000
 43.440      52.000
 43.450      52.000
 43.460      52.000
 43.470      52.000
 43.480      52.000
 43.490      52.000
 43.500      52.000
 43.510      52.000
 43.520      52.000
 43.530      52.000
 43.540      52.000
 43.550      52.000
 43.560      52.000
 43.570      52.000
 43.580      52.000
 43.590      52.000
 43.600      52.000
 43.610      52.000
 43.620      52.000
 43.630      52.000
 43.640      52.000
 43.650      52.000
 43.660      52.000
 43.670      52.000
 43.681      52.000
 43.691      52.000
 43.701      52.000
 43.711      52.000
 43.721      52.000
 43.731      52.000
 43.741      52.000
 43.751      52.000
 43.761      52.000
 43.771      52.000
 43.781      52.000
 43.791      52.000
 43.801      52.000
 43.811      52.000
 43.821      52.000
 43.831      52.000
 43.841      52.000
 43.851      52.000
 43.861      52.000
 43.871      52.000
 43.881      52.000
 43.891      52.000
 43.901      52.000
 43.911      52.000
 43.921      52.000
 43.931      52.000
 43.941      52.000
 43.951      52.000
 43.961      52.000
 43.971      52.000
 43.981      52.000
 43.991      52.000
 44.001      52.000
 44.011      52.000
 44.021      52.000
 44.031      52.000
 44.041      52.000
 44.051      52.000
 44.061      52.000
 44.071      52.000
 44.081      52.000
 44.091      52.000
 44.101      52.000
 44.111      52.000
 44.121      52.000
 44.131      52.000
 44.141      52.000
 44.151      52.000
 44.161      52.000
 44.171      52.000
 44.181      52.000
 44.191      52.000
 44.201      52.000
 44.211      52.000
 44.221      52.000
 44.232      52.000
 44.242      52.000
 44.252      52.000
 44.262      52.000
 44.272      52.000
 44.282      52.000
 44.292      52.000
 44.302      52.000
 44.312      52.000
 44.322      52.000
 44.332      52.000
 44.342      52.000
 44.352      52.000
 44.362      52.000
 44.372      52.000
 44.382      52.000
 44.392      52.000
 44.402      54.422
 44.412      54.469
 44.422      54.517
 44.432      54.567
 44.442      54.618
 44.452      54.671
 44.462      54.725
 44.472      54.781
 44.482      54.839
 44.492      54.898
 44.502      54.960
 44.512      55.023
 44.522      55.089
 44.532      55.157
 44.542      55.227
 44.552      55.299
 44.562      55.373
 44.572      55.451
 44.582      55.531
 44.592      55.613
 44.602      55.699
 44.612      55.788
 44.622      55.880
 44.632      55.975
 44.642      56.074
 44.652      56.177
 44.662      56.284
 44.672      56.394
 44.682      56.510
 44.692      56.629
 44.702      56.754
 44.712      56.883
 44.722      57.018
 44.732      57.159
 44.742      57.305
 44.752      57.458
 44.762      57.618
 44.772      57.785
 44.782      57.959
 44.793      58.141
 44.803      58.332
 44.813      58.531
 44.823      58.741
 44.833      58.960
 44.843      59.190
 44.853      59.432
 44.863      59.687
 44.873      59.954
 44.883      60.236
 44.893      60.533
 44.903      60.846
 44.913      61.177
 44.923      61.526
 44.933      61.896
 44.943      62.288
 44.953      62.703
 44.963      63.144
 44.973      63.613
 44.983      64.112
 44.993      64.643
 45.003      65.210
 45.013      65.816
 45.023      66.465
 45.033      67.160
 45.043      67.906
 45.053      68.708
 45.063      69.572
 45.073      70.504
 45.083      71.512
 45.093      72.605
 45.103      73.791
 45.113      75.081
 45.123      76.489
 45.133      78.029
 45.143      79.717
 45.153      81.572
 45.163      83.620
 45.173      85.884
 45.183      88.398
 45.193      91.198
 45.203      94.330
 45.213      97.846
 45.223     101.813
 45.233     106.306
 45.243     111.424
 45.253     117.282
 45.263     124.030
 45.273     131.849
 45.283     140.975
 45.293     151.696
 45.303     164.395
 45.313     179.562
 45.323     197.840
 45.333     220.075
 45.344     247.399
 45.354     281.281
 45.364     323.696
 45.374     377.193
 45.384     657.092
 45.394     754.232
 45.404     847.093
 45.414     930.311
 45.424     998.540
 45.434    1047.195
 45.444    1072.837
 45.454    1073.605
 45.464    1049.443
 45.474    1002.084
 45.484     934.918
 45.494     852.493
 45.504     760.066
 45.514     663.038
 45.524     566.448
 45.534     326.591
 45.544     283.584
 45.554     249.247
 45.564     221.581
 45.574     199.072
 45.584     180.580
 45.594     165.243
 45.604     152.405
 45.614     141.575
 45.624     132.365
 45.634     124.473
 45.644     117.666
 45.654     111.758
 45.664     106.597
 45.674     102.069
 45.684      98.074
 45.694      94.532
 45.704      91.379
 45.714      88.560
 45.724      86.029
 45.734      83.751
 45.744      81.691
 45.754      79.825
 45.764      78.127
 45.774      76.579
 45.784      75.164
 45.794      73.866
 45.804      72.674
 45.814      71.576
 45.824      70.563
 45.834      69.627
 45.844      68.759
 45.854      67.953
 45.864      67.203
 45.874      66.506
 45.884      65.854
 45.894      65.246
 45.905      64.677
 45.915      64.143
 45.925      63.642
 45.935      63.172
 45.945      62.729
 45.955      62.312
 45.965      61.919
 45.975      61.548
 45.985      61.197
 45.995      60.866
 46.005      60.551
 46.015      60.253
 46.025      59.971
 46.035      59.703
 46.045      59.447
 46.055      59.205
 46.065      58.974
 46.075      58.754
 46.085      58.544
 46.095      58.344
 46.105      58.152
 46.115      57.970
 46.125      57.795
 46.135      57.628
 46.145      57.468
 46.155      57.315
 46.165      57.168
 46.175      57.027
 46.185      56.891
 46.195      56.761
 46.205      56.637
 46.215      56.517
 46.225      56.401
 46.235      56.290
 46.245      56.183
 46.255      56.080
 46.265      55.981
 46.275      55.886
 46.285      55.793
 46.295      55.704
 46.305      55.619
 46.315      55.536
 46.325      55.456
 46.335      55.378
 46.345      55.303
 46.355      55.231
 46.365      55.161
 46.375      55.093
 46.385      55.027
 46.395      54.964
 46.405      54.902
 46.415      54.842
 46.425      54.785
 46.435      54.728
 46.445      54.674
 46.456      54.621
 46.466      54.570
 46.476      54.520
 46.486      54.472
 46.496      54.425
 46.506      52.000
 46.516      52.000
 46.526      52.000
 46.536      52.000
 46.546      52.000
 46.556      52.000
 46.566      52.000
 46.576      52.000
 46.586      52.000
 46.596      52.000
 46.606      52.000
 46.616      52.000
 46.626      52.000
 46.636      52.000
 46.646      52.000
 46.656      52.000
 46.666      52.000
 46.676      52.000
 46.686      52.000
 46.696      52.000
 46.706      52.000
 46.716      52.000
 46.726      52.000
 46.736      52.000
 46.746      52.000
 46.756      52.000
 46.766      52.000
 46.776      52.000
 46.786      52.000
 46.796      52.000
 46.806      52.000
 46.816      52.000
 46.826      52.000
 46.836      52.000
 46.846      52.000
 46.856      52.000
 46.866      52.000
 46.876      52.000
 46.886      52.000
 46.896      52.000
 46.906      52.000
 46.916      52.000
 46.926      52.000
 46.936      52.000
 46.946      52.000
 46.956      52.000
 46.966      52.000
 46.976      52.000
 46.986      52.000
 46.996      52.000
 47.006      52.000
 47.017      52.000
 47.027      52.000
 47.037      52.000
 47.047      52.000
 47.057      52.000
 47.067      52.000
 47.077      52.000
 47.087      52.000
 47.097      52.000
 47.107      52.000
 47.117      52.000
 47.127      52.000
 47.137      52.000
 47.147      52.000
 47.157      52.000
 47.167      52.000
 47.177      52.000
 47.187      52.000
 47.197      52.000
 47.207      52.000
 47.217      52.000
 47.227      52.000
 47.237      52.000
 47.247      52.000
 47.257      52.000
 47.267      52.000
 47.277      52.000
 47.287      52.000
 47.297      52.000
 47.307      52.000
 47.317      52.000
 47.327      52.000
 47.337      52.000
 47.347      52.000
 47.357      52.000
 47.367      52.000
 47.377      52.000
 47.387      52.000
 47.397      52.000
 47.407      52.000
 47.417      52.000
 47.427      52.000
 47.437      52.000
 47.447      52.000
 47.457      52.000
 47.467      52.000
 47.477      52.000
 47.487      52.000
 47.497      52.000
 47.507      52.000
 47.517      52.000
 47.527      52.000
 47.537      52.000
 47.547      52.000
 47.557      52.000
 47.568      52.000
 47.578      52.000
 47.588      52.000
 47.598      52.000
 47.608      52.000
 47.618      52.000
 47.628      52.000
 47.638      52.000
 47.648      52.000
 47.658      52.000
 47.668      52.000
 47.678      52.000
 47.688      52.000
 47.698      52.000
 47.708      52.000
 47.718      52.000
 47.728      52.000
 47.738      52.000
 47.748      52.000
 47.758      52.000
 47.768      52.000
 47.778      52.000
 47.788      52.000
 47.798      52.000
 47.808      52.000
 47.818      52.000
 47.828      52.000
 47.838      52.000
 47.848      52.000
 47.858      52.000
 47.868      52.000
 47.878      52.000
 47.888      52.000
 47.898      52.000
 47.908      52.000
 47.918      52.000
 47.928      52.000
 47.938      52.000
 47.948      52.000
 47.958      52.000
 47.968      52.000
 47.978      52.000
 47.988      52.000
 47.998      52.000
 48.008      52.000
 48.018      52.000
 48.028      52.000
 48.038      52.000
 48.048      52.000
 48.058      52.000
 48.068      52.000
 48.078      52.000
 48.088      52.000
 48.098      52.000
 48.108      52.000
 48.118      52.000
 48.129      52.000
 48.139      52.000
 48.149      52.000
 48.159      52.000
 48.169      52.000
 48.179      52.000
 48.189      52.000
 48.199      52.000
 48.209      52.000
 48.219      52.000
 48.229      52.000
 48.239      52.000
 48.249      52.000
 48.259      52.000
 48.269      52.000
 48.279      52.000
 48.289      52.000
 48.299      52.000
 48.309      52.000
 48.319      52.000
 48.329      52.000
 48.339      52.000
 48.349      52.000
 48.359      52.000
 48.369      52.000
 48.379      52.000
 48.389      52.000
 48.399      52.000
 48.409      52.000
 48.419      52.000
 48.429      52.000
 48.439      52.000
 48.449      52.000
 48.459      52.000
 48.469      52.000
 48.479      52.000
 48.489      52.000
 48.499      52.000
 48.509      52.000
 48.519      52.000
 48.529      52.000
 48.539      52.000
 48.549      52.000
 48.559      52.000
 48.569      52.000
 48.579      52.000
 48.589      52.000
 48.599      52.000
 48.609      52.000
 48.619      52.000
 48.629      52.000
 48.639      52.000
 48.649      52.000
 48.659      52.000
 48.669      52.000
 48.679      52.000
 48.690      52.000
 48.700      52.000
 48.710      52.000
 48.720      52.000
 48.730      52.000
 48.740      52.000
 48.750      52.000
 48.760      52.000
 48.770      52.000
 48.780      52.000
 48.790      52.000
 48.800      52.000
 48.810      52.000
 48.820      52.000
 48.830      52.000
 48.840      52.000
 48.850      52.000
 48.860      52.000
 48.870      52.000
 48.880      52.000
 48.890      52.000
 48.900      52.000
 48.910      52.000
 48.920      52.000
 48.930      52.000
 48.940      52.000
 48.950      52.000
 48.960      52.000
 48.970      52.000
 48.980      52.000
 48.990      52.000
 49.000      52.000
 49.010      52.000
 49.020      52.000
 49.030      52.000
 49.040      52.000
 49.050      52.000
 49.060      52.000
 49.070      52.000
 49.080      52.000
 49.090      52.000
 49.100      52.000
 49.110      52.000
 49.120      52.000
 49.130      52.000
 49.140      52.000
 49.150      52.000
 49.160      52.000
 49.170      52.000
 49.180      52.000
 49.190      52.000
 49.200      52.000
 49.210      52.000
 49.220      52.000
 49.230      52.000
 49.241      52.000
 49.251      52.000
 49.261      52.000
 49.271      52.000
 49.281      52.000
 49.291      52.000
 49.301      52.000
 49.311      52.000
 49.321      52.000
 49.331      52.000
 49.341      52.000
 49.351      52.000
 49.361      52.000
 49.371      52.000
 49.381      52.000
 49.391      52.000
 49.401      52.000
 49.411      52.000
 49.421      52.000
 49.431      52.000
 49.441      52.000
 49.451      52.000
 49.461      52.000
 49.471      52.000
 49.481      52.000
 49.491      52.000
 49.501      52.000
 49.511      52.000
 49.521      52.000
 49.531      52.000
 49.541      52.000
 49.551      52.000
 49.561      52.000
 49.571      52.000
 49.581      52.000
 49.591      52.000
 49.601      52.000
 49.611      52.000
 49.621      52.000
 49.631      52.000
 49.641      52.000
 49.651      52.000
 49.661      52.000
 49.671      52.000
 49.681      52.000
 49.691      52.000
 49.701      52.000
 49.711      52.000
 49.721      52.000
 49.731      52.000
 49.741      52.000
 49.751      52.000
 49.761      52.000
 49.771      52.000
 49.781      52.000
 49.791      52.000
 49.802      52.000
 49.812      52.000
 49.822      52.000
 49.832      52.000
 49.842      52.000
 49.852      52.000
 49.862      52.000
 49.872      52.000
 49.882      52.000
 49.892      52.000
 49.902      52.000
 49.912      52.000
 49.922      52.000
 49.932      52.000
 49.942      52.000
 49.952      52.000
 49.962      52.000
 49.972      52.000
 49.982      52.000
 49.992      52.000
 50.002      52.000
 50.012      52.000
 50.022      52.000
 50.032      52.000
 50.042      52.000
 50.052      52.000
 50.062      52.000
 50.072      52.000
 50.082      52.000
 50.092      52.000
 50.102      52.000
 50.112      52.000
 50.122      52.000
 50.132      52.000
 50.142      52.000
 50.152      52.000
 50.162      52.000
 50.172      52.000
 50.182      52.000
 50.192      52.000
 50.202      52.000
 50.212      52.000
 50.222      52.000
 50.232      52.000
 50.242      52.000
 50.252      52.000
 50.262      52.000
 50.272      52.000
 50.282      52.000
 50.292      52.000
 50.302      52.000
 50.312      52.000
 50.322      52.000
 50.332      52.000
 50.342      52.000
 50.353      52.000
 50.363      52.000
 50.373      52.000
 50.383      52.000
 50.393      52.000
 50.403      52.000
 50.413      52.000
 50.423      52.000
 50.433      52.000
 50.443      52.000
 50.453      52.000
 50.463      52.000
 50.473      52.000
 50.483      52.000
 50.493      52.000
 50.503      52.000
 50.513      52.000
 50.523      52.000
 50.533      52.000
 50.543      52.000
 50.553      52.000
 50.563      52.000
 50.573      52.000
 50.583      52.000
 50.593      52.000
 50.603      52.000
 50.613      52.000
 50.623      52.000
 50.633      52.000
 50.643      52.000
 50.653      52.000
 50.663      52.000
 50.673      52.000
 50.683      52.000
 50.693      52.000
 50.703      52.000
 50.713      52.000
 50.723      52.000
 50.733      52.000
 50.743      52.000
 50.753      52.000
 50.763      52.000
 50.773      52.000
 50.783      52.000
 50.793      52.000
 50.803      52.000
 50.813      52.000
 50.823      52.000
 50.833      52.000
 50.843      52.000
 50.853      52.000
 50.863      52.000
 50.873      52.000
 50.883      52.000
 50.893      52.000
 50.903      52.000
 50.914      52.000
 50.924      52.000
 50.934      52.000
 50.944      52.000
 50.954      52.000
 50.964      52.000
 50.974      52.000
 50.984      52.000
 50.994      52.000
 51.004      52.000
 51.014      52.000
 51.024      52.000
 51.034      52.000
 51.044      52.000
 51.054      52.000
 51.064      52.000
 51.074      52.000
 51.084      52.000
 51.094      52.000
 51.104      52.000
 51.114      52.000
 51.124      52.000
 51.134      52.000
 51.144      52.000
 51.154      52.000
 51.164      52.000
 51.174      52.000
 51.184      52.000
 51.194      52.000
 51.204      52.000
 51.214      52.000
 51.224      52.000
 51.234      52.000
 51.244      52.000
 51.254      52.000
 51.264      52.000
 51.274      52.000
 51.284      52.000
 51.294      52.000
 51.304      52.000
 51.314      52.000
 51.324      52.000
 51.334      52.000
 51.344      52.000
 51.354      52.000
 51.364      52.000
 51.374      52.000
 51.384      52.000
 51.394      52.000
 51.404      52.000
 51.414      52.000
 51.424      52.000
 51.434      52.000
 51.444      52.000
 51.454      52.000
 51.465      52.000
 51.475      52.000
 51.485      52.000
 51.495      52.000
 51.505      52.000
 51.515      52.000
 51.525      52.000
 51.535      52.000
 51.545      52.000
 51.555      52.000
 51.565      52.000
 51.575      52.000
 51.585      52.000
 51.595      52.000
 51.605      52.000
 51.615      52.000
 51.625      52.000
 51.635      52.000
 51.645      52.000
 51.655      52.000
 51.665      52.000
 51.675      52.000
 51.685      52.000
 51.695      52.000
 51.705      52.000
 51.715      52.000
 51.725      52.000
 51.735      52.000
 51.745      52.000
 51.755      52.000
 51.765      52.000
 51.775      52.000
 51.785      52.000
 51.795      52.000
 51.805      52.000
 51.815      52.000
 51.825      52.000
 51.835      52.000
 51.845      52.000
 51.855      52.000
 51.865      52.000
 51.875      52.000
 51.885      52.000
 51.895      52.000
 51.905      52.000
 51.915      52.000
 51.925      52.000
 51.935      52.000
 51.945      52.000
 51.955      52.000
 51.965      52.000
 51.975      52.000
 51.985      52.000
 51.995      52.000
 52.005      52.000
 52.015      52.000
 52.026      52.000
 52.036      52.000
 52.046      52.000
 52.056      52.000
 52.066      52.000
 52.076      52.000
 52.086      52.000
 52.096      52.000
 52.106      52.000
 52.116      52.000
 52.126      52.000
 52.136      52.000
 52.146      52.000
 52.156      52.000
 52.166      52.000
 52.176      52.000
 52.186      52.000
 52.196      52.000
 52.206      52.000
 52.216      52.000
 52.226      52.000
 52.236      52.000
 52.246      52.000
 52.256      52.000
 52.266      52.000
 52.276      52.000
 52.286      52.000
 52.296      52.000
 52.306      52.000
 52.316      52.000
 52.326      52.000
 52.336      52.000
 52.346      52.000
 52.356      52.000
 52.366      52.000
 52.376      52.000
 52.386      52.000
 52.396      52.000
 52.406      52.000
 52.416      52.000
 52.426      52.000
 52.436      52.000
 52.446      52.000
 52.456      52.000
 52.466      52.000
 52.476      52.000
 52.486      52.000
 52.496      52.000
 52.506      52.000
 52.516      52.000
 52.526      52.000
 52.536      52.000
 52.546      52.000
 52.556      52.000
 52.566      52.000
 52.576      52.000
 52.587      52.000
 52.597      52.000
 52.607      52.000
 52.617      52.000
 52.627      52.000
 52.637      52.000
 52.647      52.063
 52.657      52.064
 52.667      52.065
 52.677      52.066
 52.687      52.067
 52.697      52.068
 52.707      52.069
 52.717      52.070
 52.727      52.072
 52.737      52.073
 52.747      52.074
 52.757      52.076
 52.767      52.077
 52.777      52.078
 52.787      52.080
 52.797      52.081
 52.807      52.083
 52.817      52.084
 52.827      52.086
 52.837      52.088
 52.847      52.089
 52.857      52.091
 52.867      52.093
 52.877      52.095
 52.887      52.097
 52.897      52.099
 52.907      52.101
 52.917      52.103
 52.927      52.105
 52.937      52.107
 52.947      52.110
 52.957      52.112
 52.967      52.115
 52.977      52.117
 52.987      52.120
 52.997      52.123
 53.007      52.126
 53.017      52.128
 53.027      52.132
 53.037      52.135
 53.047      52.138
 53.057      52.141
 53.067      52.145
 53.077      52.149
 53.087      52.152
 53.097      52.156
 53.107      52.160
 53.117      52.165
 53.127      52.169
 53.138      52.174
 53.148      52.179
 53.158      52.184
 53.168      52.189
 53.178      52.194
 53.188      52.200
 53.198      52.206
 53.208      52.212
 53.218      52.219
 53.228      52.226
 53.238      52.233
 53.248      52.240
 53.258      52.248
 53.268      52.256
 53.278      52.265
 53.288      52.274
 53.298      52.284
 53.308      52.294
 53.318      52.305
 53.328      52.316
 53.338      52.328
 53.348      52.340
 53.358      52.353
 53.368      52.368
 53.378      52.382
 53.388      52.398
 53.398      52.415
 53.408      52.433
 53.418      52.452
 53.428      52.473
 53.438      52.494
 53.448      52.518
 53.458      52.543
 53.468      52.569
 53.478      52.598
 53.488      52.629
 53.498      52.663
 53.508      52.699
 53.518      52.739
 53.528      52.781
 53.538      52.828
 53.548      52.879
 53.558      52.934
 53.568      52.995
 53.578      53.062
 53.588      53.136
 53.598      53.217
 53.608      53.308
 53.618      53.409
 53.628      53.521
 53.638      53.648
 53.648      53.790
 53.658      53.952
 53.668      54.136
 53.678      54.346
 53.688      54.587
 53.699      54.866
 53.709      55.191
 53.719      55.571
 53.729      56.019
 53.739      56.551
 53.749      57.187
 53.759      57.953
 53.769      58.881
 53.779      60.012
 53.789      66.617
 53.799      68.765
 53.809      70.886
 53.819      72.893
 53.829      74.700
 53.839      76.221
 53.849      77.382
 53.859      78.123
 53.869      78.404
 53.879      78.210
 53.889      77.553
 53.899      76.466
 53.909      75.006
 53.919      73.246
 53.929      71.269
 53.939      69.163
 53.949      67.014
 53.959      60.248
 53.969      59.074
 53.979      58.111
 53.989      57.318
 53.999      56.660
 54.009      56.111
 54.019      55.648
 54.029      55.257
 54.039      54.923
 54.049      54.636
 54.059      54.388
 54.069      54.172
 54.079      53.984
 54.089      53.819
 54.099      53.673
 54.109      53.544
 54.119      53.429
 54.129      53.326
 54.139      53.233
 54.149      53.150
 54.159      53.075
 54.169      53.007
 54.179      52.945
 54.189      52.888
 54.199      52.837
 54.209      52.790
 54.219      52.746
 54.229      52.706
 54.239      52.670
 54.250      52.635
 54.260      52.604
 54.270      52.575
 54.280      52.547
 54.290      52.522
 54.300      52.499
 54.310      52.476
 54.320      52.456
 54.330      52.436
 54.340      52.418
 54.350      52.401
 54.360      52.385
 54.370      52.370
 54.380      52.356
 54.390      52.343
 54.400      52.330
 54.410      52.318
 54.420      52.307
 54.430      52.296
 54.440      52.286
 54.450      52.276
 54.460      52.267
 54.470      52.258
 54.480      52.250
 54.490      52.242
 54.500      52.234
 54.510      52.227
 54.520      52.220
 54.530      52.214
 54.540      52.207
 54.550      52.201
 54.560      52.195
 54.570      52.190
 54.580      52.185
 54.590      52.180
 54.600      52.175
 54.610      52.170
 54.620      52.166
 54.630      52.161
 54.640      52.157
 54.650      52.153
 54.660      52.149
 54.670      52.146
 54.680      52.142
 54.690      52.139
 54.700      52.135
 54.710      52.132
 54.720      52.129
 54.730      52.126
 54.740      52.123
 54.750      52.120
 54.760      52.118
 54.770      52.115
 54.780      52.113
 54.790      52.110
 54.800      52.108
 54.811      52.106
 54.821      52.103
 54.831      52.101
 54.841      52.099
 54.851      52.097
 54.861      52.095
 54.871      52.093
 54.881      52.091
 54.891      52.090
 54.901      52.088
 54.911      52.086
 54.921      52.085
 54.931      52.083
 54.941      52.082
 54.951      52.080
 54.961      52.079
 54.971      52.077
 54.981      52.076
 54.991      52.074
 55.001      52.073
 55.011      52.072
 55.021      52.071
 55.031      52.069
 55.041      52.068
 55.051      52.067
 55.061      52.066
 55.071      52.065
 55.081      52.064
 55.091      52.063
 55.101      52.000
 55.111      52.000
 55.121      52.000
 55.131      52.000
 55.141      52.000
 55.151      52.000
 55.161      52.000
 55.171      52.000
 55.181      52.000
 55.191      52.638
 55.201      52.648
 55.211      52.658
 55.221      52.669
 55.231      52.679
 55.241      52.690
 55.251      52.702
 55.261      52.713
 55.271      52.725
 55.281      52.737
 55.291      52.750
 55.301      52.763
 55.311      52.776
 55.321      52.789
 55.331      52.803
 55.341      52.818
 55.351      52.832
 55.362      52.847
 55.372      52.863
 55.382      52.878
 55.392      52.895
 55.402      52.911
 55.412      52.929
 55.422      52.946
 55.432      52.965
 55.442      52.983
 55.452      53.003
 55.462      53.023
 55.472      53.043
 55.482      53.064
 55.492      53.086
 55.502      53.108
 55.512      53.131
 55.522      53.155
 55.532      53.180
 55.542      53.205
 55.552      53.231
 55.562      53.258
 55.572      53.286
 55.582      53.315
 55.592      53.345
 55.602      53.376
 55.612      53.408
 55.622      53.441
 55.632      53.476
 55.642      53.511
 55.652      53.548
 55.662      53.586
 55.672      53.626
 55.682      53.667
 55.692      53.710
 55.702      53.754
 55.712      53.800
 55.722      53.848
 55.732      53.898
 55.742      53.950
 55.752      54.004
 55.762      54.061
 55.772      54.120
 55.782      54.181
 55.792      54.245
 55.802      54.312
 55.812      54.382
 55.822      54.455
 55.832      54.531
 55.842      54.612
 55.852      54.696
 55.862      54.784
 55.872      54.876
 55.882      54.974
 55.892      55.076
 55.902      55.183
 55.912      55.297
 55.923      55.416
 55.933      55.542
 55.943      55.675
 55.953      55.816
 55.963      55.965
 55.973      56.122
 55.983      56.289
 55.993      56.467
 56.003      56.656
 56.013      56.857
 56.023      57.071
 56.033      57.299
 56.043      57.543
 56.053      57.805
 56.063      58.085
 56.073      58.385
 56.083      58.709
 56.093      59.057
 56.103      59.433
 56.113      59.839
 56.123      60.280
 56.133      60.758
 56.143      61.278
 56.153      61.846
 56.163      62.466
 56.173      63.146
 56.183      63.894
 56.193      64.718
 56.203      65.629
 56.213      66.641
 56.223      67.766
 56.233      69.023
 56.243      70.434
 56.253      72.022
 56.263      73.818
 56.273      75.860
 56.283      78.192
 56.293      80.868
 56.303      83.958
 56.313      87.545
 56.323      91.736
 56.333      96.663
 56.343     102.496
 56.353     109.441
 56.363     117.765
 56.373     127.799
 56.383     189.540
 56.393     210.293
 56.403     231.214
 56.413     251.582
 56.423     270.639
 56.433     287.609
 56.443     301.756
 56.453     312.435
 56.463     319.142
 56.474     321.550
 56.484     319.544
 56.494     313.222
 56.504     302.890
 56.514     289.036
 56.524     272.288
 56.534     253.390
 56.544     233.110
 56.554     212.216
 56.564     191.421
 56.574     128.819
 56.584     118.609
 56.594     110.140
 56.604     103.081
 56.614      97.157
 56.624      92.155
 56.634      87.903
 56.644      84.265
 56.654      81.132
 56.664      78.421
 56.674      76.061
 56.684      73.995
 56.694      72.178
 56.704      70.572
 56.714      69.146
 56.724      67.875
 56.734      66.738
 56.744      65.718
 56.754      64.798
 56.764      63.966
 56.774      63.212
 56.784      62.526
 56.794      61.900
 56.804      61.328
 56.814      60.804
 56.824      60.322
 56.834      59.878
 56.844      59.469
 56.854      59.090
 56.864      58.739
 56.874      58.414
 56.884      58.111
 56.894      57.829
 56.904      57.566
 56.914      57.321
 56.924      57.091
 56.934      56.876
 56.944      56.674
 56.954      56.484
 56.964      56.305
 56.974      56.137
 56.984      55.979
 56.994      55.829
 57.004      55.688
 57.014      55.554
 57.024      55.427
 57.035      55.307
 57.045      55.193
 57.055      55.085
 57.065      54.983
 57.075      54.885
 57.085      54.792
 57.095      54.704
 57.105      54.619
 57.115      54.539
 57.125      54.462
 57.135      54.388
 57.145      54.318
 57.155      54.251
 57.165      54.187
 57.175      54.125
 57.185      54.066
 57.195      54.009
 57.205      53.955
 57.215      53.903
 57.225      53.853
 57.235      53.805
 57.245      53.758
 57.255      53.714
 57.265      53.671
 57.275      53.630
 57.285      53.590
 57.295      53.551
 57.305      53.514
 57.315      53.479
 57.325      53.444
 57.335      53.411
 57.345      53.379
 57.355      53.348
 57.365      53.318
 57.375      53.289
 57.385      53.261
 57.395      53.234
 57.405      53.207
 57.415      53.182
 57.425      53.157
 57.435      53.133
 57.445      53.110
 57.455      53.088
 57.465      53.066
 57.475      53.045
 57.485      53.024
 57.495      53.004
 57.505      52.985
 57.515      52.966
 57.525      52.948
 57.535      52.930
 57.545      52.913
 57.555      52.896
 57.565      52.880
 57.575      52.864
 57.585      52.849
 57.596      52.834
 57.606      52.819
 57.616      52.805
 57.626      52.791
 57.636      52.777
 57.646      52.764
 57.656      52.751
 57.666      52.739
 57.676      52.726
 57.686      52.714
 57.696      52.703
 57.706      52.691
 57.716      52.680
 57.726      52.669
 57.736      52.659
 57.746      52.649
 57.756      52.639
 57.766      52.000
 57.776      52.000
 57.786      52.000
 57.796      52.000
 57.806      52.000
 57.816      52.000
 57.826      52.000
 57.836      52.000
 57.846      52.000
 57.856      52.000
 57.866      52.000
 57.876      52.000
 57.886      52.000
 57.896      52.000
 57.906      52.000
 57.916      52.000
 57.926      52.000
 57.936      52.000
 57.946      52.000
 57.956      52.000
 57.966      52.000
 57.976      52.000
 57.986      52.000
 57.996      52.000
 58.006      52.000
 58.016      52.000
 58.026      52.000
 58.036      52.000
 58.046      52.000
 58.056      52.000
 58.066      52.000
 58.076      52.000
 58.086      52.000
 58.096      52.000
 58.106      52.000
 58.116      52.000
 58.126      52.000
 58.136      52.000
 58.147      52.000
 58.157      52.000
 58.167      52.000
 58.177      52.000
 58.187      52.000
 58.197      52.000
 58.207      52.000
 58.217      52.000
 58.227      52.000
 58.237      52.000
 58.247      52.000
 58.257      52.000
 58.267      52.000
 58.277      52.000
 58.287      52.000
 58.297      52.000
 58.307      52.000
 58.317      52.000
 58.327      52.000
 58.337      52.000
 58.347      52.000
 58.357      52.000
 58.367      52.000
 58.377      52.000
 58.387      52.000
 58.397      52.000
 58.407      52.000
 58.417      52.000
 58.427      52.000
 58.437      52.000
 58.447      52.000
 58.457      52.000
 58.467      52.000
 58.477      52.000
 58.487      52.000
 58.497      52.000
 58.507      52.000
 58.517      52.000
 58.527      52.000
 58.537      52.000
 58.547      52.000
 58.557      52.000
 58.567      52.000
 58.577      52.000
 58.587      52.000
 58.597      52.000
 58.607      52.000
 58.617      52.000
 58.627      52.000
 58.637      52.000
 58.647      52.000
 58.657      52.000
 58.667      52.000
 58.677      52.000
 58.687      52.000
 58.697      52.000
 58.708      52.000
 58.718      52.000
 58.728      52.000
 58.738      52.000
 58.748      52.000
 58.758      52.000
 58.768      52.000
 58.778      52.000
 58.788      52.000
 58.798      52.000
 58.808      52.000
 58.818      52.000
 58.828      52.000
 58.838      52.000
 58.848      52.000
 58.858      52.000
 58.868      52.000
 58.878      52.000
 58.888      52.000
 58.898      52.000
 58.908      52.000
 58.918      52.000
 58.928      52.000
 58.938      52.000
 58.948      52.000
 58.958      52.000
 58.968      52.000
 58.978      52.000
 58.988      52.000
 58.998      52.000
 59.008      52.000
 59.018      52.000
 59.028      52.000
 59.038      52.000
 59.048      52.000
 59.058      52.000
 59.068      52.000
 59.078      52.000
 59.088      52.000
 59.098      52.000
 59.108      52.000
 59.118      52.000
 59.128      52.000
 59.138      52.000
 59.148      52.000
 59.158      52.000
 59.168      52.000
 59.178      52.000
 59.188      52.000
 59.198      52.000
 59.208      52.000
 59.218      52.000
 59.228      52.000
 59.238      52.000
 59.248      52.000
 59.259      52.000
 59.269      52.000
 59.279      52.000
 59.289      52.000
 59.299      52.000
 59.309      52.000
 59.319      52.000
 59.329      52.000
 59.339      52.000
 59.349      52.000
 59.359      52.000
 59.369      52.000
 59.379      52.000
 59.389      52.000
 59.399      52.000
 59.409      52.000
 59.419      52.000
 59.429      52.000
 59.439      52.000
 59.449      52.000
 59.459      52.000
 59.469      52.000
 59.479      52.000
 59.489      52.000
 59.499      52.000
 59.509      52.000
 59.519      52.000
 59.529      52.000
 59.539      52.000
 59.549      52.000
 59.559      52.000
 59.569      52.000
 59.579      52.000
 59.589      52.000
 59.599      52.000
 59.609      52.000
 59.619      52.000
 59.629      52.000
 59.639      52.000
 59.649      52.000
 59.659      52.000
 59.669      52.000
 59.679      52.000
 59.689      52.000
 59.699      52.000
 59.709      52.000
 59.719      52.000
 59.729      52.000
 59.739      52.000
 59.749      52.000
 59.759      52.000
 59.769      52.000
 59.779      52.000
 59.789      52.000
 59.799      52.000
 59.809      52.000
 59.820      52.000
 59.830      52.000
 59.840      52.000
 59.850      52.000
 59.860      52.000
 59.870      52.000
 59.880      52.000
 59.890      52.000
 59.900      52.000
 59.910      52.000
 59.920      52.000
 59.930      52.000
 59.940      52.000
 59.950      52.000
 59.960      52.000
 59.970      52.000
 59.980      52.000
 59.990      52.000
 60.000      52.000
 60.010      52.000
 60.020      52.000
 60.030      52.000
 60.040      52.000
 60.050      52.000
 60.060      52.000
 60.070      52.000
 60.080      52.000
 60.090      52.000
 60.100      52.000
 60.110      52.000
 60.120      52.000
 60.130      52.000
 60.140      52.000
 60.150      52.000
 60.160      52.000
 60.170      52.000
 60.180      52.000
 60.190      52.000
 60.200      52.000
 60.210      52.000
 60.220      52.000
 60.230      52.000
 60.240      52.000
 60.250      52.000
 60.260      52.000
 60.270      52.000
 60.280      52.000
 60.290      52.000
 60.300      52.000
 60.310      52.000
 60.320      52.000
 60.330      52.000
 60.340      52.000
 60.350      52.000
 60.360      52.000
 60.371      52.000
 60.381      52.000
 60.391      52.000
 60.401      52.000
 60.411      52.000
 60.421      52.000
 60.431      52.000
 60.441      52.000
 60.451      52.000
 60.461      52.000
 60.471      52.000
 60.481      52.000
 60.491      52.000
 60.501      52.000
 60.511      52.000
 60.521      52.000
 60.531      52.000
 60.541      52.000
 60.551      52.000
 60.561      52.000
 60.571      52.000
 60.581      52.000
 60.591      52.000
 60.601      52.000
 60.611      52.000
 60.621      52.000
 60.631      52.000
 60.641      52.000
 60.651      52.000
 60.661      52.000
 60.671      52.000
 60.681      52.000
 60.691      52.000
 60.701      52.000
 60.711      52.000
 60.721      52.000
 60.731      52.000
 60.741      52.000
 60.751      52.000
 60.761      52.000
 60.771      52.000
 60.781      52.000
 60.791      52.000
 60.801      52.000
 60.811      52.000
 60.821      52.000
 60.831      52.000
 60.841      52.000
 60.851      52.000
 60.861      52.000
 60.871      52.000
 60.881      52.000
 60.891      52.000
 60.901      52.000
 60.911      52.000
 60.921      52.000
 60.932      52.000
 60.942      52.000
 60.952      52.000
 60.962      52.000
 60.972      52.000
 60.982      52.000
 60.992      52.000
 61.002      52.000
 61.012      52.000
 61.022      52.000
 61.032      52.000
 61.042      52.000
 61.052      52.000
 61.062      52.000
 61.072      52.000
 61.082      52.000
 61.092      52.000
 61.102      52.000
 61.112      52.000
 61.122      52.000
 61.132      52.000
 61.142      52.000
 61.152      52.000
 61.162      52.000
 61.172      52.000
 61.182      52.000
 61.192      52.000
 61.202      52.000
 61.212      52.000
 61.222      52.000
 61.232      52.000
 61.242      52.000
 61.252      52.000
 61.262      52.000
 61.272      52.000
 61.282      52.000
 61.292      52.000
 61.302      52.000
 61.312      52.000
 61.322      52.000
 61.332      52.000
 61.342      52.000
 61.352      52.000
 61.362      52.000
 61.372      52.000
 61.382      52.000
 61.392      52.000
 61.402      52.000
 61.412      52.000
 61.422      52.000
 61.432      52.000
 61.442      52.000
 61.452      52.000
 61.462      52.000
 61.472      52.000
 61.483      52.000
 61.493      52.000
 61.503      52.000
 61.513      52.000
 61.523      52.000
 61.533      52.000
 61.543      52.000
 61.553      52.000
 61.563      52.000
 61.573      52.000
 61.583      52.000
 61.593      52.000
 61.603      52.000
 61.613      52.000
 61.623      52.000
 61.633      52.000
 61.643      52.000
 61.653      52.000
 61.663      52.000
 61.673      52.000
 61.683      52.000
 61.693      52.000
 61.703      52.000
 61.713      52.000
 61.723      52.000
 61.733      52.000
 61.743      52.000
 61.753      52.000
 61.763      52.000
 61.773      52.000
 61.783      52.000
 61.793      52.000
 61.803      52.000
 61.813      52.000
 61.823      52.000
 61.833      52.000
 61.843      52.000
 61.853      52.000
 61.863      52.000
 61.873      52.000
 61.883      52.000
 61.893      52.000
 61.903      52.000
 61.913      52.000
 61.923      52.000
 61.933      52.000
 61.943      52.000
 61.953      52.000
 61.963      52.000
 61.973      52.000
 61.983      52.000
 61.993      52.000
 62.003      52.000
 62.013      52.000
 62.023      52.000
 62.033      52.000
 62.044      52.000
 62.054      52.000
 62.064      52.000
 62.074      52.000
 62.084      52.000
 62.094      52.000
 62.104      52.000
 62.114      52.000
 62.124      52.000
 62.134      52.000
 62.144      52.000
 62.154      52.000
 62.164      52.000
 62.174      52.000
 62.184      52.000
 62.194      52.000
 62.204      52.000
 62.214      52.000
 62.224      52.000
 62.234      52.000
 62.244      52.000
 62.254      52.000
 62.264      52.000
 62.274      52.000
 62.284      52.000
 62.294      52.000
 62.304      52.000
 62.314      52.000
 62.324      52.000
 62.334      52.000
 62.344      52.000
 62.354      52.000
 62.364      52.000
 62.374      52.000
 62.384      52.000
 62.394      52.000
 62.404      52.000
 62.414      52.000
 62.424      52.000
 62.434      52.000
 62.444      52.000
 62.454      52.000
 62.464      52.000
 62.474      52.000
 62.484      52.000
 62.494      52.000
 62.504      52.000
 62.514      52.000
 62.524      52.000
 62.534      52.000
 62.544      52.000
 62.554      52.000
 62.564      52.000
 62.574      52.000
 62.584      52.000
 62.595      52.000
 62.605      52.000
 62.615      52.000
 62.625      52.000
 62.635      52.000
 62.645      52.000
 62.655      52.000
 62.665      52.000
 62.675      52.000
 62.685      52.000
 62.695      52.000
 62.705      52.000
 62.715      52.000
 62.725      52.000
 62.735      52.000
 62.745      52.000
 62.755      52.000
 62.765      52.000
 62.775      52.000
 62.785      52.000
 62.795      52.000
 62.805      52.000
 62.815      52.000
 62.825      52.000
 62.835      52.000
 62.845      52.000
 62.855      52.000
 62.865      52.000
 62.875      52.000
 62.885      52.000
 62.895      52.000
 62.905      52.000
 62.915      52.000
 62.925      52.000
 62.935      52.000
 62.945      52.000
 62.955      52.000
 62.965      52.000
 62.975      52.000
 62.985      52.000
 62.995      52.000
 63.005      52.000
 63.015      52.000
 63.025      52.000
 63.035      52.000
 63.045      52.000
 63.055      52.000
 63.065      52.000
 63.075      52.000
 63.085      52.000
 63.095      52.000
 63.105      52.000
 63.115      52.000
 63.125      52.000
 63.135      52.000
 63.145      52.000
 63.156      52.000
 63.166      52.000
 63.176      52.000
 63.186      52.000
 63.196      52.000
 63.206      52.000
 63.216      52.000
 63.226      52.000
 63.236      52.000
 63.246      52.000
 63.256      52.000
 63.266      52.000
 63.276      52.000
 63.286      52.000
 63.296      52.000
 63.306      52.000
 63.316      52.000
 63.326      52.000
 63.336      52.000
 63.346      52.000
 63.356      52.000
 63.366      52.000
 63.376      52.000
 63.386      52.000
 63.396      52.000
 63.406      52.000
 63.416      52.000
 63.426      52.000
 63.436      52.000
 63.446      52.000
 63.456      52.000
 63.466      52.000
 63.476      52.000
 63.486      52.000
 63.496      52.000
 63.506      52.000
 63.516      52.000
 63.526      52.000
 63.536      52.000
 63.546      52.000
 63.556      52.000
 63.566      52.000
 63.576      52.000
 63.586      52.000
 63.596      52.000
 63.606      52.000
 63.616      52.000
 63.626      52.000
 63.636      52.000
 63.646      52.000
 63.656      52.000
 63.666      52.000
 63.676      52.000
 63.686      52.000
 63.696      52.000
 63.706      52.000
 63.717      52.000
 63.727      52.000
 63.737      52.000
 63.747      52.000
 63.757      52.000
 63.767      52.000
 63.777      52.000
 63.787      52.000
 63.797      52.000
 63.807      52.000
 63.817      52.000
 63.827      52.000
 63.837      52.000
 63.847      52.000
 63.857      52.000
 63.867      52.000
 63.877      52.000
 63.887      52.000
 63.897      52.000
 63.907      52.000
 63.917      52.000
 63.927      52.000
 63.937      52.000
 63.947      52.000
 63.957      52.000
 63.967      52.000
 63.977      52.000
 63.987      52.000
 63.997      52.000
 64.007      52.000
 64.017      52.000
 64.027      52.000
 64.037      52.000
 64.047      52.000
 64.057      52.000
 64.067      52.000
 64.077      52.000
 64.087      52.000
 64.097      52.000
 64.107      52.000
 64.117      52.000
 64.127      52.000
 64.137      52.000
 64.147      52.000
 64.157      52.000
 64.167      52.000
 64.177      52.000
 64.187      52.000
 64.197      52.000
 64.207      52.000
 64.217      52.000
 64.227      52.000
 64.237      52.000
 64.247      52.000
 64.257      52.000
 64.268      52.000
 64.278      52.000
 64.288      52.000
 64.298      52.000
 64.308      52.000
 64.318      52.000
 64.328      52.000
 64.338      52.000
 64.348      52.000
 64.358      52.000
 64.368      52.000
 64.378      52.000
 64.388      52.000
 64.398      52.000
 64.408      52.000
 64.418      52.000
 64.428      52.000
 64.438      52.000
 64.448      52.000
 64.458      52.000
 64.468      52.000
 64.478      52.000
 64.488      52.000
 64.498      52.000
 64.508      52.000
 64.518      52.000
 64.528      52.000
 64.538      52.000
 64.548      52.000
 64.558      52.000
 64.568      52.000
 64.578      52.000
 64.588      52.000
 64.598      52.000
 64.608      52.000
 64.618      52.000
 64.628      52.000
 64.638      52.000
 64.648      52.000
 64.658      52.000
 64.668      52.000
 64.678      52.000
 64.688      52.000
 64.698      52.000
 64.708      52.236
 64.718      52.239
 64.728      52.242
 64.738      52.246
 64.748      52.249
 64.758      52.252
 64.768      52.256
 64.778      52.259
 64.788      52.263
 64.798      52.267
 64.808      52.270
 64.818      52.274
 64.829      52.278
 64.839      52.282
 64.849      52.286
 64.859      52.291
 64.869      52.295
 64.879      52.299
 64.889      52.304
 64.899      52.308
 64.909      52.313
 64.919      52.318
 64.929      52.323
 64.939      52.328
 64.949      52.333
 64.959      52.338
 64.969      52.343
 64.979      52.349
 64.989      52.355
 64.999      52.360
 65.009      52.366
 65.019      52.372
 65.029      52.379
 65.039      52.385
 65.049      52.391
 65.059      52.398
 65.069      52.405
 65.079      52.412
 65.089      52.419
 65.099      52.427
 65.109      52.434
 65.119      52.442
 65.129      52.450
 65.139      52.459
 65.149      52.467
 65.159      52.476
 65.169      52.485
 65.179      52.494
 65.189      52.504
 65.199      52.513
 65.209      52.524
 65.219      52.534
 65.229      52.545
 65.239      52.556
 65.249      52.567
 65.259      52.579
 65.269      52.591
 65.279      52.603
 65.289      52.616
 65.299      52.629
 65.309      52.643
 65.319      52.657
 65.329      52.672
 65.339      52.687
 65.349      52.703
 65.359      52.719
 65.369      52.736
 65.380      52.753
 65.390      52.771
 65.400      52.790
 65.410      52.809
 65.420      52.829
 65.430      52.850
 65.440      52.871
 65.450      52.893
 65.460      52.917
 65.470      52.941
 65.480      52.966
 65.490      52.992
 65.500      53.019
 65.510      53.048
 65.520      53.077
 65.530      53.108
 65.540      53.140
 65.550      53.173
 65.560      53.208
 65.570      53.245
 65.580      53.283
 65.590      53.323
 65.600      53.365
 65.610      53.409
 65.620      53.455
 65.630      53.504
 65.640      53.555
 65.650      53.608
 65.660      53.664
 65.670      53.724
 65.680      53.786
 65.690      53.852
 65.700      53.921
 65.710      53.995
 65.720      54.073
 65.730      54.155
 65.740      54.242
 65.750      54.335
 65.760      54.434
 65.770      54.539
 65.780      54.650
 65.790      54.770
 65.800      54.897
 65.810      55.033
 65.820      55.179
 65.830      55.336
 65.840      55.505
 65.850      55.686
 65.860      55.882
 65.870      56.093
 65.880      56.322
 65.890      56.570
 65.900      56.840
 65.910      57.135
 65.920      57.456
 65.930      57.808
 65.941      58.195
 65.951      58.620
 65.961      59.090
 65.971      59.610
 65.981      60.187
 65.991      60.831
 66.001      61.551
 66.011      62.359
 66.021      63.270
 66.031      64.302
 66.041      65.474
 66.051      66.812
 66.061      68.345
 66.071      70.112
 66.081      72.157
 66.091      74.534
 66.101      77.310
 66.111      80.564
 66.121     102.656
 66.131     109.122
 66.141     115.663
 66.151     122.128
 66.161     128.354
 66.171     134.161
 66.181     139.381
 66.191     143.850
 66.201     147.425
 66.211     149.986
 66.221     151.444
 66.231     151.750
 66.241     150.893
 66.251     148.902
 66.261     145.846
 66.271     141.829
 66.281     136.984
 66.291     131.460
 66.301     125.434
 66.311     119.075
 66.321     112.554
 66.331     106.031
 66.341      82.493
 66.351      78.952
 66.361      75.937
 66.371      73.359
 66.381      71.147
 66.391      69.241
 66.401      67.590
 66.411      66.152
 66.421      64.897
 66.431      63.795
 66.441      62.824
 66.451      61.963
 66.461      61.199
 66.471      60.516
 66.481      59.905
 66.492      59.356
 66.502      58.861
 66.512      58.413
 66.522      58.007
 66.532      57.637
 66.542      57.300
 66.552      56.992
 66.562      56.709
 66.572      56.450
 66.582      56.211
 66.592      55.991
 66.602      55.787
 66.612      55.598
 66.622      55.423
 66.632      55.260
 66.642      55.109
 66.652      54.967
 66.662      54.835
 66.672      54.712
 66.682      54.596
 66.692      54.488
 66.702      54.386
 66.712      54.290
 66.722      54.200
 66.732      54.115
 66.742      54.035
 66.752      53.959
 66.762      53.888
 66.772      53.820
 66.782      53.756
 66.792      53.695
 66.802      53.637
 66.812      53.582
 66.822      53.530
 66.832      53.480
 66.842      53.433
 66.852      53.388
 66.862      53.345
 66.872      53.304
 66.882      53.265
 66.892      53.227
 66.902      53.192
 66.912      53.157
 66.922      53.124
 66.932      53.093
 66.942      53.063
 66.952      53.034
 66.962      53.006
 66.972      52.979
 66.982      52.954
 66.992      52.929
 67.002      52.906
 67.012      52.883
 67.022      52.861
 67.032      52.840
 67.042      52.819
 67.053      52.800
 67.063      52.781
 67.073      52.762
 67.083      52.745
 67.093      52.728
 67.103      52.711
 67.113      52.695
 67.123      52.680
 67.133      52.665
 67.143      52.651
 67.153      52.637
 67.163      52.623
 67.173      52.610
 67.183      52.597
 67.193      52.585
 67.203      52.573
 67.213      52.562
 67.223      52.550
 67.233      52.540
 67.243      52.529
 67.253      52.519
 67.263      52.509
 67.273      52.499
 67.283      52.490
 67.293      52.481
 67.303      52.472
 67.313      52.463
 67.323      52.455
 67.333      52.447
 67.343      52.439
 67.353      52.431
 67.363      52.423
 67.373      52.416
 67.383      52.409
 67.393      52.402
 67.403      52.395
 67.413      52.388
 67.423      52.382
 67.433      52.376
 67.443      52.369
 67.453      52.363
 67.463      52.358
 67.473      52.352
 67.483      52.346
 67.493      52.341
 67.503      52.336
 67.513      52.330
 67.523      52.325
 67.533      52.320
 67.543      52.315
 67.553      52.311
 67.563      52.306
 67.573      52.302
 67.583      52.297
 67.593      52.293
 67.604      52.289
 67.614      52.284
 67.624      52.280
 67.634      52.276
 67.644      52.272
 67.654      52.269
 67.664      52.265
 67.674      52.261
 67.684      52.258
 67.694      52.254
 67.704      52.251
 67.714      52.247
 67.724      52.244
 67.734      52.241
 67.744      52.238
 67.754      52.235
 67.764      52.000
 67.774      52.000
 67.784      52.000
 67.794      52.000
 67.804      52.000
 67.814      52.000
 67.824      52.000
 67.834      52.000
 67.844      52.000
 67.854      52.000
 67.864      52.000
 67.874      52.000
 67.884      52.000
 67.894      52.000
 67.904      52.000
 67.914      52.000
 67.924      52.000
 67.934      52.000
 67.944      52.000
 67.954      52.000
 67.964      52.000
 67.974      52.000
 67.984      52.000
 67.994      52.000
 68.004      52.000
 68.014      52.000
 68.024      52.000
 68.034      52.000
 68.044      52.000
 68.054      52.000
 68.064      52.000
 68.074      52.000
 68.084      52.000
 68.094      52.000
 68.104      52.000
 68.114      52.000
 68.124      52.000
 68.134      52.000
 68.144      52.000
 68.154      52.000
 68.165      52.000
 68.175      52.000
 68.185      52.000
 68.195      52.000
 68.205      52.000
 68.215      52.000
 68.225      52.000
 68.235      52.000
 68.245      52.000
 68.255      52.000
 68.265      52.000
 68.275      52.000
 68.285      52.000
 68.295      52.000
 68.305      52.000
 68.315      52.000
 68.325      52.000
 68.335      52.000
 68.345      52.000
 68.355      52.000
 68.365      52.000
 68.375      52.000
 68.385      52.000
 68.395      52.000
 68.405      52.000
 68.415      52.000
 68.425      52.000
 68.435      52.000
 68.445      52.000
 68.455      52.000
 68.465      52.000
 68.475      52.000
 68.485      52.000
 68.495      52.000
 68.505      52.000
 68.515      52.000
 68.525      52.000
 68.535      52.000
 68.545      52.000
 68.555      52.000
 68.565      52.000
 68.575      52.000
 68.585      52.000
 68.595      52.000
 68.605      52.000
 68.615      52.000
 68.625      52.000
 68.635      52.000
 68.645      52.000
 68.655      52.000
 68.665      52.000
 68.675      52.000
 68.685      52.000
 68.695      52.000
 68.705      52.000
 68.715      52.000
 68.726      52.000
 68.736      52.000
 68.746      52.000
 68.756      52.000
 68.766      52.000
 68.776      52.000
 68.786      52.000
 68.796      52.000
 68.806      52.000
 68.816      52.000
 68.826      52.000
 68.836      52.000
 68.846      52.000
 68.856      52.000
 68.866      52.000
 68.876      52.000
 68.886      52.000
 68.896      52.000
 68.906      52.000
 68.916      52.000
 68.926      52.000
 68.936      52.000
 68.946      52.000
 68.956      52.000
 68.966      52.000
 68.976      52.000
 68.986      52.000
 68.996      52.000
 69.006      52.000
 69.016      52.000
 69.026      52.000
 69.036      52.000
 69.046      52.000
 69.056      52.000
 69.066      52.000
 69.076      52.000
 69.086      52.000
 69.096      52.000
 69.106      52.000
 69.116      52.000
 69.126      52.000
 69.136      52.000
 69.146      52.000
 69.156      52.000
 69.166      52.000
 69.176      52.000
 69.186      52.000
 69.196      52.000
 69.206      52.000
 69.216      52.000
 69.226      52.000
 69.236      52.000
 69.246      52.000
 69.256      52.000
 69.266      52.000
 69.277      52.000
 69.287      52.000
 69.297      52.000
 69.307      52.000
 69.317      52.000
 69.327      52.000
 69.337      52.000
 69.347      52.000
 69.357      52.000
 69.367      52.000
 69.377      52.000
 69.387      52.000
 69.397      52.000
 69.407      52.000
 69.417      52.000
 69.427      52.000
 69.437      52.000
 69.447      52.000
 69.457      52.000
 69.467      52.000
 69.477      52.000
 69.487      52.000
 69.497      52.000
 69.507      52.000
 69.517      52.000
 69.527      52.000
 69.537      52.000
 69.547      52.000
 69.557      52.000
 69.567      52.000
 69.577      52.000
 69.587      52.000
 69.597      52.000
 69.607      52.000
 69.617      52.000
 69.627      52.000
 69.637      52.000
 69.647      52.000
 69.657      52.000
 69.667      52.000
 69.677      52.000
 69.687      52.000
 69.697      52.000
 69.707      52.000
 69.717      52.000
 69.727      52.000
 69.737      52.000
 69.747      52.000
 69.757      52.000
 69.767      52.000
 69.777      52.000
 69.787      52.000
 69.797      52.000
 69.807      52.000
 69.817      52.000
 69.827      52.000
 69.838      52.000
 69.848      52.000
 69.858      52.000
 69.868      52.000
 69.878      52.000
 69.888      52.000
 69.898      52.000
 69.908      52.000
 69.918      52.000
 69.928      52.000
 69.938      52.000
 69.948      52.000
 69.958      52.000
 69.968      52.000
 69.978      52.000
 69.988      52.000
 69.998      52.000
 70.008      52.000
 70.018      52.000
 70.028      52.000
 70.038      52.000
 70.048      52.000
 70.058      52.000
 70.068      52.000
 70.078      52.000
 70.088      52.000
 70.098      52.000
 70.108      52.000
 70.118      52.000
 70.128      52.000
 70.138      52.000
 70.148      52.000
 70.158      52.000
 70.168      52.000
 70.178      52.000
 70.188      52.000
 70.198      52.000
 70.208      52.000
 70.218      52.000
 70.228      52.000
 70.238      52.000
 70.248      52.000
 70.258      52.000
 70.268      52.000
 70.278      52.000
 70.288      52.000
 70.298      52.000
 70.308      52.000
 70.318      52.000
 70.328      52.000
 70.338      52.000
 70.348      52.000
 70.358      52.000
 70.368      52.000
 70.378      52.000
 70.389      52.000
 70.399      52.000
 70.409      52.000
 70.419      52.000
 70.429      52.000
 70.439      52.000
 70.449      52.000
 70.459      52.000
 70.469      52.000
 70.479      52.000
 70.489      52.000
 70.499      52.000
 70.509      52.000
 70.519      52.000
 70.529      52.000
 70.539      52.000
 70.549      52.000
 70.559      52.000
 70.569      52.000
 70.579      52.000
 70.589      52.000
 70.599      52.000
 70.609      52.000
 70.619      52.000
 70.629      52.000
 70.639      52.000
 70.649      52.000
 70.659      52.000
 70.669      52.000
 70.679      52.000
 70.689      52.000
 70.699      52.000
 70.709      52.000
 70.719      52.000
 70.729      52.000
 70.739      52.000
 70.749      52.000
 70.759      52.000
 70.769      52.000
 70.779      52.000
 70.789      52.000
 70.799      52.000
 70.809      52.000
 70.819      52.000
 70.829      52.000
 70.839      52.000
 70.849      52.000
 70.859      52.000
 70.869      52.000
 70.879      52.000
 70.889      52.000
 70.899      52.000
 70.909      52.000
 70.919      52.000
 70.929      52.000
 70.939      52.000
 70.950      52.000
 70.960      52.000
 70.970      52.000
 70.980      52.000
 70.990      52.000
 71.000      52.000
 71.010      52.000
 71.020      52.000
 71.030      52.000
 71.040      52.000
 71.050      52.000
 71.060      52.000
 71.070      52.000
 71.080      52.000
 71.090      52.000
 71.100      52.000
 71.110      52.000
 71.120      52.000
 71.130      52.000
 71.140      52.000
 71.150      52.000
 71.160      52.000
 71.170      52.000
 71.180      52.000
 71.190      52.000
 71.200      52.000
 71.210      52.000
 71.220      52.000
 71.230      52.000
 71.240      52.000
 71.250      52.000
 71.260      52.000
 71.270      52.000
 71.280      52.000
 71.290      52.000
 71.300      52.000
 71.310      52.000
 71.320      52.000
 71.330      52.000
 71.340      52.000
 71.350      52.000
 71.360      52.022
 71.370      52.023
 71.380      52.023
 71.390      52.023
 71.400      52.023
 71.410      52.024
 71.420      52.024
 71.430      52.024
 71.440      52.025
 71.450      52.025
 71.460      52.025
 71.470      52.026
 71.480      52.026
 71.490      52.026
 71.501      52.027
 71.511      52.027
 71.521      52.027
 71.531      52.028
 71.541      52.028
 71.551      52.028
 71.561      52.029
 71.571      52.029
 71.581      52.029
 71.591      52.030
 71.601      52.030
 71.611      52.031
 71.621      52.031
 71.631      52.032
 71.641      52.032
 71.651      52.032
 71.661      52.033
 71.671      52.033
 71.681      52.034
 71.691      52.034
 71.701      52.035
 71.711      52.035
 71.721      52.036
 71.731      52.036
 71.741      52.037
 71.751      52.038
 71.761      52.038
 71.771      52.039
 71.781      52.039
 71.791      52.040
 71.801      52.041
 71.811      52.041
 71.821      52.042
 71.831      52.043
 71.841      52.043
 71.851      52.044
 71.861      52.045
 71.871      52.045
 71.881      52.046
 71.891      52.047
 71.901      52.048
 71.911      52.049
 71.921      52.049
 71.931      52.050
 71.941      52.051
 71.951      52.052
 71.961      52.053
 71.971      52.054
 71.981      52.055
 71.991      52.056
 72.001      52.057
 72.011      52.058
 72.021      52.059
 72.031      52.060
 72.041      52.062
 72.051      52.063
 72.062      52.064
 72.072      52.065
 72.082      52.067
 72.092      52.068
 72.102      52.069
 72.112      52.071
 72.122      52.072
 72.132      52.074
 72.142      52.075
 72.152      52.077
 72.162      52.079
 72.172      52.080
 72.182      52.082
 72.192      52.084
 72.202      52.086
 72.212      52.088
 72.222      52.090
 72.232      52.092
 72.242      52.095
 72.252      52.097
 72.262      52.099
 72.272      52.102
 72.282      52.104
 72.292      52.107
 72.302      52.110
 72.312      52.113
 72.322      52.116
 72.332      52.119
 72.342      52.122
 72.352      52.125
 72.362      52.129
 72.372      52.132
 72.382      52.136
 72.392      52.140
 72.402      52.144
 72.412      52.149
 72.422      52.153
 72.432      52.158
 72.442      52.163
 72.452      52.168
 72.462      52.174
 72.472      52.179
 72.482      52.186
 72.492      52.192
 72.502      52.199
 72.512      52.206
 72.522      52.213
 72.532      52.221
 72.542      52.229
 72.552      52.238
 72.562      52.247
 72.572      52.257
 72.582      52.267
 72.592      52.278
 72.602      52.290
 72.613      52.302
 72.623      52.315
 72.633      52.329
 72.643      52.344
 72.653      52.360
 72.663      52.377
 72.673      52.396
 72.683      52.415
 72.693      52.437
 72.703      52.460
 72.713      52.484
 72.723      52.511
 72.733      52.540
 72.743      52.571
 72.753      52.605
 72.763      52.643
 72.773      52.683
 72.783      52.728
 72.793      52.777
 72.803      52.831
 72.813      52.891
 72.823      52.956
 72.833      53.030
 72.843      53.111
 72.853      53.203
 72.863      53.305
 72.873      53.421
 72.883      53.551
 72.893      53.699
 72.903      53.867
 72.913      54.059
 72.923      54.279
 72.933      54.532
 72.943      54.825
 72.953      56.943
 72.963      57.494
 72.973      58.051
 72.983      58.602
 72.993      59.137
 73.003      59.644
 73.013      60.111
 73.023      60.527
 73.033      60.882
 73.043      61.166
 73.053      61.371
 73.063      61.492
 73.073      61.526
 73.083      61.472
 73.093      61.331
 73.103      61.107
 73.113      60.806
 73.123      60.436
 73.133      60.007
 73.143      59.530
 73.153      59.016
 73.163      58.476
 73.174      57.923
 73.184      57.367
 73.194      56.818
 73.204      54.754
 73.214      54.471
 73.224      54.226
 73.234      54.012
 73.244      53.826
 73.254      53.663
 73.264      53.519
 73.274      53.393
 73.284      53.281
 73.294      53.181
 73.304      53.092
 73.314      53.012
 73.324      52.941
 73.334      52.876
 73.344      52.818
 73.354      52.765
 73.364      52.717
 73.374      52.674
 73.384      52.634
 73.394      52.597
 73.404      52.564
 73.414      52.533
 73.424      52.505
 73.434      52.478
 73.444      52.454
 73.454      52.432
 73.464      52.411
 73.474      52.391
 73.484      52.373
 73.494      52.356
 73.504      52.341
 73.514      52.326
 73.524      52.853
 73.534      52.846
 73.544      52.840
 73.554      52.835
 73.564      52.831
 73.574      52.827
 73.584      52.824
 73.594      52.822
 73.604      52.820
 73.614      52.819
 73.624      52.819
 73.634      52.819
 73.644      52.820
 73.654      52.821
 73.664      52.822
 73.674      52.824
 73.684      52.826
 73.694      52.829
 73.704      52.832
 73.714      52.836
 73.724      52.840
 73.735      52.844
 73.745      52.849
 73.755      52.854
 73.765      52.859
 73.775      52.865
 73.785      52.871
 73.795      52.878
 73.805      52.884
 73.815      52.892
 73.825      52.899
 73.835      52.907
 73.845      52.915
 73.855      52.923
 73.865      52.932
 73.875      52.941
 73.885      52.951
 73.895      52.961
 73.905      52.971
 73.915      52.981
 73.925      52.992
 73.935      53.004
 73.945      53.015
 73.955      53.027
 73.965      53.040
 73.975      53.052
 73.985      53.066
 73.995      53.079
 74.005      53.093
 74.015      53.107
 74.025      53.122
 74.035      53.137
 74.045      53.153
 74.055      53.169
 74.065      53.186
 74.075      53.203
 74.085      53.220
 74.095      53.239
 74.105      53.257
 74.115      53.276
 74.125      53.296
 74.135      53.316
 74.145      53.337
 74.155      53.359
 74.165      53.381
 74.175      53.403
 74.185      53.427
 74.195      53.451
 74.205      53.476
 74.215      53.501
 74.225      53.528
 74.235      53.555
 74.245      53.583
 74.255      53.611
 74.265      53.641
 74.275      53.672
 74.286      53.703
 74.296      53.736
 74.306      53.769
 74.316      53.804
 74.326      53.839
 74.336      53.876
 74.346      53.914
 74.356      53.953
 74.366      53.994
 74.376      54.036
 74.386      54.079
 74.396      54.124
 74.406      54.170
 74.416      54.218
 74.426      54.268
 74.436      54.319
 74.446      54.373
 74.456      54.428
 74.466      54.485
 74.476      54.544
 74.486      54.606
 74.496      54.670
 74.506      54.736
 74.516      54.805
 74.526      54.876
 74.536      54.951
 74.546      55.028
 74.556      55.108
 74.566      55.192
 74.576      55.279
 74.586      55.370
 74.596      55.465
 74.606      55.564
 74.616      55.667
 74.626      55.775
 74.636      55.888
 74.646      56.006
 74.656      56.130
 74.666      56.259
 74.676      56.395
 74.686      56.537
 74.696      56.686
 74.706      56.843
 74.716      57.007
 74.726      57.181
 74.736      57.363
 74.746      57.555
 74.756      57.758
 74.766      57.972
 74.776      58.199
 74.786      58.416
 74.796      58.669
 74.806      58.938
 74.816      59.223
 74.826      59.526
 74.836      59.849
 74.847      60.192
 74.857      60.557
 74.867      60.948
 74.877      61.366
 74.887      61.813
 74.897      62.292
 74.907      62.807
 74.917      63.361
 74.927      63.957
 74.937      64.601
 74.947      65.297
 74.957      66.052
 74.967      66.871
 74.977      67.762
 74.987      68.733
 74.997      69.794
 75.007      70.957
 75.017      72.234
 75.027      73.639
 75.037      75.191
 75.047      76.909
 75.057      78.816
 75.067      80.940
 75.077      83.314
 75.087      85.974
 75.097      88.967
 75.107      92.344
 75.117      96.169
 75.127     100.519
 75.137     105.474
 75.147     111.141
 75.157     117.638
 75.167     166.351
 75.177     179.003
 75.187     191.843
 75.197     204.658
 75.207     217.217
 75.217     229.273
 75.227     240.575
 75.237     250.875
 75.247     259.935
 75.257     267.547
 75.267     273.511
 75.277     277.685
 75.287     279.963
 75.297     280.286
 75.307     278.646
 75.317     275.085
 75.327     269.694
 75.337     262.608
 75.347     254.003
 75.357     244.086
 75.367     233.087
 75.377     221.251
 75.387     208.821
 75.398     196.063
 75.408     183.207
 75.418     170.471
 75.428     119.974
 75.438     113.176
 75.448     107.250
 75.458     102.074
 75.468      97.537
 75.478      93.550
 75.488      90.033
 75.498      86.920
 75.508      84.153
 75.518      81.690
 75.528      79.488
 75.538      77.513
 75.548      75.735
 75.558      74.132
 75.568      72.680
 75.578      71.363
 75.588      70.165
 75.598      69.071
 75.608      68.072
 75.618      67.155
 75.628      66.314
 75.638      65.538
 75.648      64.824
 75.658      64.163
 75.668      63.552
 75.678      62.984
 75.688      62.457
 75.698      61.967
 75.708      61.509
 75.718      61.082
 75.728      60.683
 75.738      60.309
 75.748      59.959
 75.758      59.630
 75.768      59.321
 75.778      59.030
 75.788      58.756
 75.798      58.497
 75.808      58.253
 75.818      58.023
 75.828      57.804
 75.838      57.598
 75.848      57.402
 75.858      57.216
 75.868      57.039
 75.878      56.871
 75.888      56.712
 75.898      56.560
 75.908      56.415
 75.918      56.277
 75.928      56.146
 75.938      56.020
 75.948      55.900
 75.959      55.785
 75.969      55.675
 75.979      55.570
 75.989      55.469
 75.999      55.373
 76.009      55.280
 76.019      55.191
 76.029      55.106
 76.039      55.024
 76.049      54.945
 76.059      54.869
 76.069      54.797
 76.079      54.726
 76.089      54.659
 76.099      54.594
 76.109      54.531
 76.119      54.471
 76.129      54.412
 76.139      54.356
 76.149      54.302
 76.159      54.249
 76.169      54.198
 76.179      54.149
 76.189      54.102
 76.199      54.056
 76.209      54.012
 76.219      53.969
 76.229      53.927
 76.239      53.887
 76.249      53.848
 76.259      53.810
 76.269      53.773
 76.279      53.737
 76.289      53.703
 76.299      53.669
 76.309      53.637
 76.319      53.605
 76.329      53.574
 76.339      53.545
 76.349      53.516
 76.359      53.487
 76.369      53.460
 76.379      53.433
 76.389      53.407
 76.399      53.382
 76.409      53.358
 76.419      53.334
 76.429      53.310
 76.439      53.288
 76.449      53.266
 76.459      53.244
 76.469      53.223
 76.479      53.202
 76.489      53.183
 76.499      53.163
 76.509      53.144
 76.520      53.125
 76.530      53.107
 76.540      53.090
 76.550      53.073
 76.560      53.056
 76.570      53.039
 76.580      53.023
 76.590      53.007
 76.600      52.992
 76.610      52.977
 76.620      52.962
 76.630      52.948
 76.640      52.934
 76.650      52.920
 76.660      52.907
 76.670      52.894
 76.680      52.881
 76.690      52.869
 76.700      52.856
 76.710      52.844
 76.720      52.832
 76.730      52.821
 76.740      52.810
 76.750      52.799
 76.760      52.788
 76.770      52.777
 76.780      52.767
 76.790      52.756
 76.800      52.746
 76.810      52.737
 76.820      52.727
 76.830      52.718
 76.840      52.708
 76.850      52.699
 76.860      52.690
 76.870      52.682
 76.880      52.673
 76.890      52.665
 76.900      52.657
 76.910      52.648
 76.920      52.640
 76.930      52.633
 76.940      52.625
 76.950      52.618
 76.960      52.610
 76.970      52.603
 76.980      52.596
 76.990      52.589
 77.000      52.582
 77.010      52.575
 77.020      52.568
 77.030      52.562
 77.040      52.556
 77.050      52.549
 77.060      52.543
 77.071      52.537
 77.081      52.000
 77.091      52.000
 77.101      52.000
 77.111      52.000
 77.121      52.000
 77.131      52.000
 77.141      52.000
 77.151      52.000
 77.161      52.000
 77.171      52.000
 77.181      52.000
 77.191      52.000
 77.201      52.000
 77.211      52.000
 77.221      52.000
 77.231      52.000
 77.241      52.000
 77.251      52.000
 77.261      52.000
 77.271      52.000
 77.281      52.000
 77.291      52.000
 77.301      52.000
 77.311      52.000
 77.321      52.000
 77.331      52.000
 77.341      52.000
 77.351      52.000
 77.361      52.000
 77.371      52.000
 77.381      52.000
 77.391      52.000
 77.401      52.000
 77.411      52.000
 77.421      52.000
 77.431      52.000
 77.441      52.000
 77.451      52.000
 77.461      52.000
 77.471      52.000
 77.481      52.000
 77.491      52.000
 77.501      52.000
 77.511      52.000
 77.521      52.000
 77.531      52.000
 77.541      52.000
 77.551      52.000
 77.561      52.000
 77.571      52.000
 77.581      52.000
 77.591      52.000
 77.601      52.000
 77.611      52.000
 77.621      52.000
 77.632      52.000
 77.642      52.000
 77.652      52.000
 77.662      52.000
 77.672      52.000
 77.682      52.000
 77.692      52.000
 77.702      52.000
 77.712      52.000
 77.722      52.000
 77.732      52.000
 77.742      52.000
 77.752      52.000
 77.762      52.000
 77.772      52.000
 77.782      52.000
 77.792      52.000
 77.802      52.000
 77.812      52.000
 77.822      52.000
 77.832      52.000
 77.842      52.000
 77.852      52.000
 77.862      52.000
 77.872      52.000
 77.882      52.000
 77.892      52.000
 77.902      52.000
 77.912      52.000
 77.922      52.000
 77.932      52.000
 77.942      52.000
 77.952      52.000
 77.962      52.000
 77.972      52.000
 77.982      52.000
 77.992      52.000
 78.002      52.000
 78.012      52.000
 78.022      52.000
 78.032      52.000
 78.042      52.000
 78.052      52.000
 78.062      52.000
 78.072      52.000
 78.082      52.000
 78.092      52.000
 78.102      52.000
 78.112      52.000
 78.122      52.000
 78.132      52.000
 78.142      52.000
 78.152      52.000
 78.162      52.000
 78.172      52.000
 78.183      52.000
 78.193      52.000
 78.203      52.000
 78.213      52.000
 78.223      52.000
 78.233      52.000
 78.243      52.000
 78.253      52.000
 78.263      52.000
 78.273      52.000
 78.283      52.000
 78.293      52.000
 78.303      52.000
 78.313      52.000
 78.323      52.000
 78.333      52.000
 78.343      52.000
 78.353      52.000
 78.363      52.000
 78.373      52.000
 78.383      52.000
 78.393      52.000
 78.403      52.000
 78.413      52.000
 78.423      52.000
 78.433      52.000
 78.443      52.000
 78.453      52.000
 78.463      52.000
 78.473      52.000
 78.483      52.000
 78.493      52.000
 78.503      52.000
 78.513      52.000
 78.523      52.000
 78.533      52.000
 78.543      52.000
 78.553      52.000
 78.563      52.000
 78.573      52.000
 78.583      52.000
 78.593      52.000
 78.603      52.000
 78.613      52.000
 78.623      52.000
 78.633      52.000
 78.643      52.000
 78.653      52.000
 78.663      52.000
 78.673      52.000
 78.683      52.000
 78.693      52.000
 78.703      52.000
 78.713      52.000
 78.723      52.000
 78.733      52.000
 78.744      52.000
 78.754      52.000
 78.764      52.000
 78.774      52.000
 78.784      52.000
 78.794      52.000
 78.804      52.000
 78.814      52.000
 78.824      52.000
 78.834      52.000
 78.844      52.000
 78.854      52.000
 78.864      52.000
 78.874      52.000
 78.884      52.000
 78.894      52.000
 78.904      52.000
 78.914      52.000
 78.924      52.000
 78.934      52.000
 78.944      52.000
 78.954      52.000
 78.964      52.000
 78.974      52.000
 78.984      52.000
 78.994      52.000
 79.004      52.000
 79.014      52.000
 79.024      52.000
 79.034      52.000
 79.044      52.000
 79.054      52.000
 79.064      52.000
 79.074      52.000
 79.084      52.000
 79.094      52.000
 79.104      52.000
 79.114      52.000
 79.124      52.000
 79.134      52.000
 79.144      52.000
 79.154      52.000
 79.164      52.000
 79.174      52.000
 79.184      52.000
 79.194      52.000
 79.204      52.000
 79.214      52.000
 79.224      52.000
 79.234      52.000
 79.244      52.000
 79.254      52.000
 79.264      52.000
 79.274      52.000
 79.284      52.000
 79.295      52.000
 79.305      52.000
 79.315      52.000
 79.325      52.000
 79.335      52.000
 79.345      52.000
 79.355      52.000
 79.365      52.000
 79.375      52.000
 79.385      52.000
 79.395      52.000
 79.405      52.000
 79.415      52.000
 79.425      52.000
 79.435      52.000
 79.445      52.000
 79.455      52.000
 79.465      52.000
 79.475      52.000
 79.485      52.000
 79.495      52.000
 79.505      52.000
 79.515      52.000
 79.525      52.000
 79.535      52.000
 79.545      52.000
 79.555      52.000
 79.565      52.000
 79.575      52.000
 79.585      52.000
 79.595      52.000
 79.605      52.000
 79.615      52.000
 79.625      52.000
 79.635      52.000
 79.645      52.000
 79.655      52.000
 79.665      52.000
 79.675      52.000
 79.685      52.000
 79.695      52.000
 79.705      52.000
 79.715      52.000
 79.725      52.000
 79.735      52.000
 79.745      52.000
 79.755      52.000
 79.765      52.000
 79.775      52.000
 79.785      52.000
 79.795      52.000
 79.805      52.000
 79.815      52.000
 79.825      52.000
 79.835      52.000
 79.845      52.000
 79.856      52.000
 79.866      52.000
 79.876      52.000
 79.886      52.000
 79.896      52.000
 79.906      52.000
 79.916      52.000
 79.926      52.000
 79.936      52.000
 79.946      52.000
 79.956      52.000
 79.966      52.000
 79.976      52.000
 79.986      52.000
 79.996      52.000
 80.006      52.000
 80.016      52.000
 80.026      52.000
 80.036      52.000
 80.046      52.000
 80.056      52.000
 80.066      52.000
 80.076      52.000
 80.086      52.000
 80.096      52.000
 80.106      52.000
 80.116      52.000
 80.126      52.000
 80.136      52.000
 80.146      52.000
 80.156      52.000
 80.166      52.000
 80.176      52.000
 80.186      52.000
 80.196      52.000
 80.206      52.000
 80.216      52.000
 80.226      52.000
 80.236      52.000
 80.246      52.000
 80.256      52.000
 80.266      52.000
 80.276      52.000
 80.286      52.000
 80.296      52.000
 80.306      52.000
 80.316      52.000
 80.326      52.000
 80.336      52.000
 80.346      52.000
 80.356      52.000
 80.366      52.000
 80.376      52.000
 80.386      52.000
 80.396      52.000
 80.407      52.000
 80.417      52.000
 80.427      52.000
 80.437      52.000
 80.447      52.000
 80.457      52.000
 80.467      52.000
 80.477      52.000
 80.487      52.000
 80.497      52.000
 80.507      52.000
 80.517      52.000
 80.527      52.000
 80.537      52.000
 80.547      52.000
 80.557      52.000
 80.567      52.000
 80.577      52.000
 80.587      52.000
 80.597      52.000
 80.607      52.000
 80.617      52.000
 80.627      52.000
 80.637      52.000
 80.647      52.000
 80.657      52.000
 80.667      52.000
 80.677      52.000
 80.687      52.000
 80.697      52.000
 80.707      52.000
 80.717      52.000
 80.727      52.000
 80.737      52.000
 80.747      52.000
 80.757      52.000
 80.767      52.000
 80.777      52.000
 80.787      52.000
 80.797      52.000
 80.807      52.000
 80.817      52.000
 80.827      52.000
 80.837      52.000
 80.847      52.000
 80.857      52.000
 80.867      52.000
 80.877      52.000
 80.887      52.000
 80.897      52.000
 80.907      52.000
 80.917      52.000
 80.927      52.000
 80.937      52.000
 80.947      52.000
 80.957      52.000
 80.968      52.000
 80.978      52.000
 80.988      52.000
 80.998      52.000
 81.008      52.000
 81.018      52.000
 81.028      52.000
 81.038      52.000
 81.048      52.000
 81.058      52.000
 81.068      52.000
 81.078      52.000
 81.088      52.000
 81.098      52.000
 81.108      52.000
 81.118      52.000
 81.128      52.000
 81.138      52.000
 81.148      52.000
 81.158      52.000
 81.168      52.000
 81.178      52.000
 81.188      52.000
 81.198      52.000
 81.208      52.000
 81.218      52.000
 81.228      52.000
 81.238      52.000
 81.248      52.000
 81.258      52.000
 81.268      52.000
 81.278      52.000
 81.288      52.000
 81.298      52.000
 81.308      52.000
 81.318      52.000
 81.328      52.000
 81.338      52.000
 81.348      52.000
 81.358      52.000
 81.368      52.000
 81.378      52.000
 81.388      52.000
 81.398      52.000
 81.408      52.000
 81.418      52.000
 81.428      52.000
 81.438      52.000
 81.448      52.000
 81.458      52.000
 81.468      52.000
 81.478      52.000
 81.488      52.000
 81.498      52.000
 81.508      52.000
 81.519      52.000
 81.529      52.000
 81.539      52.000
 81.549      52.000
 81.559      52.000
 81.569      52.000
 81.579      52.000
 81.589      52.000
 81.599      52.000
 81.609      52.000
 81.619      52.000
 81.629      52.000
 81.639      52.000
 81.649      52.000
 81.659      52.000
 81.669      52.000
 81.679      52.000
 81.689      52.000
 81.699      52.000
 81.709      52.000
 81.719      52.000
 81.729      52.000
 81.739      52.000
 81.749      52.000
 81.759      52.000
 81.769      52.000
 81.779      52.000
 81.789      52.000
 81.799      52.000
 81.809      52.000
 81.819      52.000
 81.829      52.000
 81.839      52.000
 81.849      52.000
 81.859      52.000
 81.869      52.000
 81.879      52.000
 81.889      52.000
 81.899      52.000
 81.909      52.000
 81.919      52.000
 81.929      52.000
 81.939      52.000
 81.949      52.347
 81.959      52.351
 81.969      52.354
 81.979      52.358
 81.989      52.361
 81.999      52.365
 82.009      52.369
 82.019      52.372
 82.029      52.376
 82.039      52.380
 82.049      52.384
 82.059      52.388
 82.069      52.392
 82.080      52.396
 82.090      52.400
 82.100      52.404
 82.110      52.409
 82.120      52.413
 82.130      52.417
 82.140      52.422
 82.150      52.427
 82.160      52.431
 82.170      52.436
 82.180      52.441
 82.190      52.446
 82.200      52.451
 82.210      52.456
 82.220      52.461
 82.230      52.466
 82.240      52.471
 82.250      52.477
 82.260      52.482
 82.270      52.488
 82.280      52.494
 82.290      52.499
 82.300      52.505
 82.310      52.511
 82.320      52.517
 82.330      52.524
 82.340      52.530
 82.350      52.536
 82.360      52.543
 82.370      52.550
 82.380      52.557
 82.390      52.564
 82.400      52.571
 82.410      52.578
 82.420      52.585
 82.430      52.593
 82.440      52.600
 82.450      52.608
 82.460      52.616
 82.470      52.624
 82.480      52.632
 82.490      52.641
 82.500      52.649
 82.510      52.658
 82.520      52.667
 82.530      52.676
 82.540      52.685
 82.550      52.695
 82.560      52.705
 82.570      52.715
 82.580      52.725
 82.590      52.735
 82.600      52.746
 82.610      52.756
 82.620      52.767
 82.631      52.779
 82.641      52.790
 82.651      52.802
 82.661      52.814
 82.671      52.826
 82.681      52.839
 82.691      52.852
 82.701      52.865
 82.711      52.878
 82.721      52.892
 82.731      52.906
 82.741      52.921
 82.751      52.936
 82.761      52.951
 82.771      52.966
 82.781      52.982
 82.791      52.998
 82.801      53.015
 82.811      53.032
 82.821      53.050
 82.831      53.068
 82.841      53.086
 82.851      53.105
 82.861      53.125
 82.871      53.145
 82.881      53.165
 82.891      53.187
 82.901      53.208
 82.911      53.231
 82.921      53.253
 82.931      53.277
 82.941      53.301
 82.951      53.326
 82.961      53.352
 82.971      53.378
 82.981      53.405
 82.991      53.433
 83.001      53.462
 83.011      53.492
 83.021      53.522
 83.031      53.554
 83.041      53.586
 83.051      53.620
 83.061      53.654
 83.071      53.690
 83.081      53.727
 83.091      53.765
 83.101      53.804
 83.111      53.845
 83.121      53.887
 83.131      53.931
 83.141      53.976
 83.151      54.022
 83.161      54.071
 83.171      54.121
 83.181      54.173
 83.192      54.226
 83.202      54.282
 83.212      54.340
 83.222      54.400
 83.232      54.463
 83.242      54.528
 83.252      54.595
 83.262      54.665
 83.272      54.738
 83.282      54.814
 83.292      54.894
 83.302      54.976
 83.312      55.063
 83.322      55.153
 83.332      55.247
 83.342      55.345
 83.352      55.448
 83.362      55.556
 83.372      55.668
 83.382      55.786
 83.392      55.910
 83.402      56.040
 83.412      56.176
 83.422      56.320
 83.432      56.470
 83.442      56.629
 83.452      56.796
 83.462      56.973
 83.472      57.159
 83.482      57.356
 83.492      57.564
 83.502      57.784
 83.512      58.017
 83.522      58.265
 83.532      58.528
 83.542      58.807
 83.552      59.105
 83.562      59.422
 83.572      59.761
 83.582      60.123
 83.592      60.510
 83.602      60.925
 83.612      61.371
 83.622      61.849
 83.632      62.365
 83.642      62.921
 83.652      63.521
 83.662      64.172
 83.672      64.877
 83.682      65.643
 83.692      66.476
 83.702      67.386
 83.712      68.381
 83.722      69.472
 83.732      70.669
 83.743      71.987
 83.753      73.441
 83.763      75.051
 83.773      76.837
 83.783      78.822
 83.793      81.036
 83.803      83.511
 83.813      86.285
 83.823      89.399
 83.833      92.904
 83.843      96.855
 83.853     129.047
 83.863     136.135
 83.873     143.283
 83.883     150.401
 83.893     157.389
 83.903     164.147
 83.913     170.569
 83.923     176.550
 83.933     181.990
 83.943     186.793
 83.953     190.872
 83.963     194.153
 83.973     196.575
 83.983     198.089
 83.993     198.666
 84.003     198.297
 84.013     196.989
 84.023     194.766
 84.033     191.671
 84.043     187.762
 84.053     183.112
 84.063     177.806
 84.073     171.936
 84.083     165.603
 84.093     158.911
 84.103     151.959
 84.113     144.861
 84.123     137.712
 84.133     130.603
 84.143      97.797
 84.153      93.739
 84.163      90.141
 84.173      86.944
 84.183      84.099
 84.193      81.561
 84.203      79.292
 84.213      77.258
 84.223      75.429
 84.233      73.783
 84.243      72.296
 84.253      70.949
 84.263      69.726
 84.273      68.614
 84.283      67.599
 84.293      66.671
 84.304      65.821
 84.314      65.041
 84.324      64.323
 84.334      63.661
 84.344      63.050
 84.354      62.484
 84.364      61.960
 84.374      61.473
 84.384      61.021
 84.394      60.599
 84.404      60.206
 84.414      59.839
 84.424      59.495
 84.434      59.174
 84.444      58.872
 84.454      58.588
 84.464      58.322
 84.474      58.071
 84.484      57.834
 84.494      57.611
 84.504      57.401
 84.514      57.202
 84.524      57.013
 84.534      56.835
 84.544      56.665
 84.554      56.505
 84.564      56.352
 84.574      56.207
 84.584      56.070
 84.594      55.938
 84.604      55.813
 84.614      55.694
 84.624      55.580
 84.634      55.471
 84.644      55.368
 84.654      55.268
 84.664      55.173
 84.674      55.082
 84.684      54.995
 84.694      54.912
 84.704      54.832
 84.714      54.755
 84.724      54.681
 84.734      54.610
 84.744      54.542
 84.754      54.477
 84.764      54.414
 84.774      54.353
 84.784      54.295
 84.794      54.238
 84.804      54.184
 84.814      54.132
 84.824      54.082
 84.834      54.033
 84.844      53.986
 84.854      53.941
 84.865      53.897
 84.875      53.854
 84.885      53.813
 84.895      53.774
 84.905      53.735
 84.915      53.698
 84.925      53.662
 84.935      53.627
 84.945      53.594
 84.955      53.561
 84.965      53.529
 84.975      53.498
 84.985      53.468
 84.995      53.439
 85.005      53.411
 85.015      53.384
 85.025      53.357
 85.035      53.332
 85.045      53.307
 85.055      53.282
 85.065      53.259
 85.075      53.236
 85.085      53.213
 85.095      53.191
 85.105      53.170
 85.115      53.149
 85.125      53.129
 85.135      53.110
 85.145      53.091
 85.155      53.072
 85.165      53.054
 85.175      53.036
 85.185      53.019
 85.195      53.002
 85.205      52.986
 85.215      52.970
 85.225      52.954
 85.235      52.939
 85.245      52.924
 85.255      52.909
 85.265      52.895
 85.275      52.881
 85.285      52.868
 85.295      52.855
 85.305      52.842
 85.315      52.829
 85.325      52.817
 85.335      52.805
 85.345      52.793
 85.355      52.781
 85.365      52.770
 85.375      52.759
 85.385      52.748
 85.395      52.737
 85.405      52.727
 85.416      52.717
 85.426      52.707
 85.436      52.697
 85.446      52.688
 85.456      52.678
 85.466      52.669
 85.476      52.660
 85.486      52.651
 85.496      52.643
 85.506      52.634
 85.516      52.626
 85.526      52.618
 85.536      52.610
 85.546      52.602
 85.556      52.594
 85.566      52.587
 85.576      52.579
 85.586      52.572
 85.596      52.565
 85.606      52.558
 85.616      52.551
 85.626      52.545
 85.636      52.538
 85.646      52.531
 85.656      52.525
 85.666      52.519
 85.676      52.513
 85.686      52.507
 85.696      52.501
 85.706      52.495
 85.716      52.489
 85.726      52.484
 85.736      52.478
 85.746      52.473
 85.756      52.467
 85.766      52.462
 85.776      52.457
 85.786      52.452
 85.796      52.447
 85.806      52.442
 85.816      52.437
 85.826      52.432
 85.836      52.428
 85.846      52.423
 85.856      52.418
 85.866      52.414
 85.876      52.410
 85.886      52.405
 85.896      52.401
 85.906      52.397
 85.916      52.393
 85.926      52.389
 85.936      52.385
 85.946      52.381
 85.956      52.377
 85.966      52.373
 85.977      52.369
 85.987      52.366
 85.997      52.362
 86.007      52.358
 86.017      52.355
 86.027      52.351
 86.037      52.348
 86.047      52.345
 86.057      52.000
 86.067      52.000
 86.077      52.000
 86.087      52.000
 86.097      52.000
 86.107      52.000
 86.117      52.000
 86.127      52.000
 86.137      52.000
 86.147      52.000
 86.157      52.000
 86.167      52.000
 86.177      52.000
 86.187      52.000
 86.197      52.000
 86.207      52.000
 86.217      52.000
 86.227      52.000
 86.237      52.000
 86.247      52.000
 86.257      52.000
 86.267      52.000
 86.277      52.000
 86.287      52.000
 86.297      52.000
 86.307      52.000
 86.317      52.000
 86.327      52.000
 86.337      52.000
 86.347      52.000
 86.357      52.000
 86.367      52.000
 86.377      52.000
 86.387      52.000
 86.397      52.000
 86.407      52.000
 86.417      52.000
 86.427      52.000
 86.437      52.000
 86.447      52.000
 86.457      52.000
 86.467      52.000
 86.477      52.000
 86.487      52.000
 86.497      52.000
 86.507      52.000
 86.517      52.000
 86.528      52.000
 86.538      52.000
 86.548      52.000
 86.558      52.000
 86.568      52.000
 86.578      52.000
 86.588      52.000
 86.598      52.000
 86.608      52.000
 86.618      52.000
 86.628      52.000
 86.638      52.000
 86.648      52.000
 86.658      52.000
 86.668      52.000
 86.678      52.000
 86.688      52.000
 86.698      52.000
 86.708      52.000
 86.718      52.000
 86.728      52.000
 86.738      52.000
 86.748      52.000
 86.758      52.000
 86.768      52.000
 86.778      52.000
 86.788      52.000
 86.798      52.000
 86.808      52.000
 86.818      52.000
 86.828      52.000
 86.838      52.000
 86.848      52.000
 86.858      52.000
 86.868      52.000
 86.878      52.000
 86.888      52.000
 86.898      52.000
 86.908      52.000
 86.918      52.000
 86.928      52.000
 86.938      52.000
 86.948      52.000
 86.958      52.000
 86.968      52.000
 86.978      52.000
 86.988      52.000
 86.998      52.000
 87.008      52.000
 87.018      52.000
 87.028      52.000
 87.038      52.000
 87.048      52.000
 87.058      52.000
 87.068      52.000
 87.078      52.000
 87.089      52.000
 87.099      52.000
 87.109      52.000
 87.119      52.000
 87.129      52.000
 87.139      52.000
 87.149      52.000
 87.159      52.000
 87.169      52.000
 87.179      52.000
 87.189      52.000
 87.199      52.000
 87.209      52.000
 87.219      52.000
 87.229      52.000
 87.239      52.000
 87.249      52.000
 87.259      52.000
 87.269      52.000
 87.279      52.000
 87.289      52.000
 87.299      52.000
 87.309      52.000
 87.319      52.000
 87.329      52.000
 87.339      52.000
 87.349      52.000
 87.359      52.000
 87.369      52.000
 87.379      52.000
 87.389      52.000
 87.399      52.000
 87.409      52.000
 87.419      52.000
 87.429      52.000
 87.439      52.000
 87.449      52.000
 87.459      52.000
 87.469      52.000
 87.479      52.000
 87.489      52.000
 87.499      52.000
 87.509      52.000
 87.519      52.000
 87.529      52.000
 87.539      52.000
 87.549      52.000
 87.559      52.000
 87.569      52.000
 87.579      52.000
 87.589      52.000
 87.599      52.000
 87.609      52.000
 87.619      52.000
 87.629      52.000
 87.640      52.000
 87.650      52.000
 87.660      52.000
 87.670      52.000
 87.680      52.000
 87.690      52.000
 87.700      52.000
 87.710      52.000
 87.720      52.000
 87.730      52.000
 87.740      52.000
 87.750      52.000
 87.760      52.000
 87.770      52.000
 87.780      52.000
 87.790      52.000
 87.800      52.000
 87.810      52.000
 87.820      52.000
 87.830      52.000
 87.840      52.000
 87.850      52.000
 87.860      52.000
 87.870      52.000
 87.880      52.000
 87.890      52.000
 87.900      52.000
 87.910      52.000
 87.920      52.000
 87.930      52.000
 87.940      52.000
 87.950      52.000
 87.960      52.000
 87.970      52.000
 87.980      52.000
 87.990      52.000
 88.000      52.000
 88.010      52.000
 88.020      52.000
 88.030      52.000
 88.040      52.000
 88.050      52.000
 88.060      52.000
 88.070      52.000
 88.080      52.000
 88.090      52.000
 88.100      52.000
 88.110      52.000
 88.120      52.000
 88.130      52.000
 88.140      52.000
 88.150      52.000
 88.160      52.000
 88.170      52.000
 88.180      52.000
 88.190      52.000
 88.201      52.000
 88.211      52.000
 88.221      52.000
 88.231      52.000
 88.241      52.000
 88.251      52.000
 88.261      52.000
 88.271      52.000
 88.281      52.000
 88.291      52.000
 88.301      52.000
 88.311      52.000
 88.321      52.000
 88.331      52.000
 88.341      52.000
 88.351      52.000
 88.361      52.000
 88.371      52.000
 88.381      52.000
 88.391      52.000
 88.401      52.000
 88.411      52.000
 88.421      52.000
 88.431      52.000
 88.441      52.000
 88.451      52.000
 88.461      52.000
 88.471      52.000
 88.481      52.000
 88.491      52.000
 88.501      52.000
 88.511      52.000
 88.521      52.000
 88.531      52.000
 88.541      52.000
 88.551      52.000
 88.561      52.000
 88.571      52.000
 88.581      52.000
 88.591      52.000
 88.601      52.000
 88.611      52.000
 88.621      52.000
 88.631      52.000
 88.641      52.000
 88.651      52.000
 88.661      52.000
 88.671      52.000
 88.681      52.000
 88.691      52.000
 88.701      52.000
 88.711      52.000
 88.721      52.000
 88.731      52.000
 88.741      52.000
 88.751      52.000
 88.762      52.000
 88.772      52.000
 88.782      52.000
 88.792      52.000
 88.802      52.000
 88.812      52.000
 88.822      52.000
 88.832      52.000
 88.842      52.000
 88.852      52.000
 88.862      52.000
 88.872      52.000
 88.882      52.000
 88.892      52.000
 88.902      52.000
 88.912      52.000
 88.922      52.000
 88.932      52.000
 88.942      52.000
 88.952      52.000
 88.962      52.000
 88.972      52.000
 88.982      52.000
 88.992      52.000
 89.002      52.000
 89.012      52.000
 89.022      52.000
 89.032      52.000
 89.042      52.000
 89.052      52.000
 89.062      52.000
 89.072      52.000
 89.082      52.000
 89.092      52.000
 89.102      52.000
 89.112      52.000
 89.122      52.000
 89.132      52.000
 89.142      52.000
 89.152      52.000
 89.162      52.000
 89.172      52.000
 89.182      52.000
 89.192      52.000
 89.202      52.000
 89.212      52.000
 89.222      52.000
 89.232      52.000
 89.242      52.000
 89.252      52.000
 89.262      52.000
 89.272      52.000
 89.282      52.000
 89.292      52.000
 89.302      52.000
 89.313      52.000
 89.323      52.000
 89.333      52.000
 89.343      52.000
 89.353      52.000
 89.363      52.000
 89.373      52.000
 89.383      52.000
 89.393      52.000
 89.403      52.000
 89.413      52.000
 89.423      52.000
 89.433      52.000
 89.443      52.000
 89.453      52.000
 89.463      52.000
 89.473      52.000
 89.483      52.000
 89.493      52.000
 89.503      52.000
 89.513      52.000
 89.523      52.000
 89.533      52.000
 89.543      52.000
 89.553      52.000
 89.563      52.000
 89.573      52.000
 89.583      52.000
 89.593      52.000
 89.603      52.000
 89.613      52.000
 89.623      52.000
 89.633      52.000
 89.643      52.000
 89.653      52.000
 89.663      52.000
 89.673      52.000
 89.683      52.000
 89.693      52.000
 89.703      52.000
 89.713      52.000
 89.723      52.000
 89.733      52.000
 89.743      52.000
 89.753      52.000
 89.763      52.000
 89.773      52.000
 89.783      52.000
 89.793      52.000
 89.803      52.000
 89.813      52.000
 89.823      52.000
 89.833      52.000
 89.843      52.000
 89.853      52.000
 89.863      52.000
 89.874      52.000
 89.884      52.000
 89.894      52.000
 89.904      52.000
 89.914      52.000
 89.924      52.000
 89.934      52.000
 89.944      52.000
 89.954      52.000
 89.964      52.000
 89.974      52.000
 89.984      52.000
 89.994      52.000
 90.004      52.000
